Jaz Data File
++++++++++++++++++++++++++++++++++++
Date: Wed Sep 18 04:13:01 2024
User: jaz
Dark Spectrum Present: Yes
Reference Spectrum Present: Yes
Processed Spectrum Present: Yes
Spectrometers: JAZA3692
Integration Time (usec): 40000 (JAZA3692)
Spectra Averaged: 1 (JAZA3692)
Boxcar Smoothing: 0 (JAZA3692)
Correct for Electrical Dark: No (JAZA3692)
Strobe/Lamp Enabled: Yes (JAZA3692)
Correct for Detector Non-linearity: No (JAZA3692)
Correct for Stray Light: No (JAZA3692)
Number of Pixels in Processed Spectrum: 2048
>>>>>Begin Processed Spectral Data<<<<<
W	D	R	S	P
190.244385	0.000000	0.000000	0.000000	0.000000
190.627136	0.000000	0.000000	0.000000	0.000000
191.009842	1479.088501	1465.435425	1431.302612	350.000885
191.392532	1406.271851	1449.506714	1383.516602	-52.631714
191.775177	1426.751587	1447.231201	1431.302612	22.222221
192.157791	1497.292725	1479.088501	1431.302612	362.498901
192.540390	1483.639526	1440.404663	1440.404663	100.000000
192.922943	1472.261963	1406.271851	1374.414551	148.275864
193.305481	1524.598877	1479.088501	1526.874512	-5.000255
193.687958	1545.078613	1533.701050	1447.231201	860.003235
194.070419	1506.394775	1488.190552	1567.833862	-337.499084
194.452866	1517.772339	1551.905151	1499.568237	-53.333141
194.835251	1490.466064	1463.159912	1485.915039	16.666666
195.217621	1447.231201	1433.578125	1504.119263	-416.668457
195.599960	1504.119263	1488.190552	1495.017212	57.142418
195.982254	1565.558350	1554.180664	1435.853638	1139.992065
196.364517	1485.915039	1570.109375	1501.843750	18.918982
196.746750	1515.496826	1495.017212	1529.150024	-66.667259
197.128952	1481.364014	1558.731689	1506.394775	32.352997
197.511139	1515.496826	1545.078613	1517.772339	7.692276
197.893280	1506.394775	1485.915039	1549.629639	-211.110443
198.275391	1506.394775	1490.466064	1451.782227	342.856049
198.657471	1451.782227	1517.772339	1419.924927	-48.275867
199.039520	1472.261963	1460.884399	1469.986450	20.000000
199.421539	1426.751587	1520.047852	1524.598877	104.878036
199.803513	1524.598877	1506.394775	1483.639526	225.000671
200.185471	1510.945801	1517.772339	1524.598877	200.000000
200.567383	1492.741699	1492.741699	1515.496826	0.000000
200.949265	1472.261963	1506.394775	1495.017212	66.666786
201.331131	1449.506714	1513.221313	1520.047852	110.714241
201.712967	1408.547363	1551.905151	1499.568237	63.492104
202.094742	1474.537476	1510.945801	1490.466064	43.749855
202.476517	1526.874512	1460.884399	1504.119263	34.482815
202.858231	1426.751587	1504.119263	1531.425537	135.294159
203.239944	1440.404663	1458.608887	1465.435425	137.499756
203.621582	1488.190552	1529.150024	1476.812988	-27.777613
204.003235	1510.945801	1495.017212	1454.057739	357.144379
204.384827	1492.741699	1542.803101	1463.159912	-59.091007
204.766388	1549.629639	1481.364014	1601.966675	-76.666748
205.147934	1465.435425	1586.037964	1456.333252	-7.547248
205.529449	1520.047852	1547.354126	1497.292725	-83.332962
205.910904	1533.701050	1444.955688	1465.435425	76.923035
206.292343	1438.129150	1583.762451	1513.221313	51.562496
206.673767	1529.150024	1547.354126	1474.537476	-300.001343
207.055115	1499.568237	1481.364014	1454.057739	249.999664
207.436462	1463.159912	1492.741699	1447.231201	-53.846344
207.817780	1442.680176	1483.639526	1472.261963	72.222305
208.199051	1474.537476	1515.496826	1563.282837	216.666916
208.580307	1529.150024	1529.150024	1479.088501	0.000000
208.961517	1540.527588	1520.047852	1451.782227	433.332550
209.342712	1499.568237	1394.894287	1488.190552	10.869644
209.723846	1520.047852	1501.843750	1526.874512	-37.500671
210.104965	1490.466064	1504.119263	1542.803101	383.331696
210.486069	1429.027100	1483.639526	1479.088501	91.666687
210.867111	1490.466064	1531.425537	1515.496826	61.111046
211.248123	1490.466064	1504.119263	1483.639526	-49.999554
211.629120	1479.088501	1542.803101	1472.261963	-10.714245
212.010071	1433.578125	1495.017212	1476.812988	70.370293
212.390991	1476.812988	1497.292725	1495.017212	88.888954
212.771881	1490.466064	1535.976563	1465.435425	-54.999706
213.152756	1535.976563	1517.772339	1495.017212	224.999161
213.533569	1438.129150	1463.159912	1422.200562	-63.636055
213.914368	1447.231201	1490.466064	1399.445313	-110.526283
214.295135	1413.098389	1483.639526	1497.292725	119.354942
214.675858	1472.261963	1535.976563	1426.751587	-71.428490
215.056549	1463.159912	1510.945801	1481.364014	38.095142
215.437225	1469.986450	1413.098389	1476.812988	-11.999949
215.817841	1492.741699	1447.231201	1433.578125	129.999832
216.198441	1438.129150	1488.190552	1467.710938	59.091007
216.579025	1397.169800	1506.394775	1463.159912	60.416687
216.959549	1490.466064	1479.088501	1488.190552	20.000000
217.340057	1476.812988	1526.874512	1479.088501	4.545433
217.720535	1472.261963	1542.803101	1440.404663	-45.161308
218.100967	1433.578125	1495.017212	1451.782227	29.629513
218.481369	1492.741699	1579.211426	1490.466064	-2.631713
218.861740	1458.608887	1492.741699	1479.088501	59.999786
219.242065	1488.190552	1492.741699	1458.608887	-649.982544
219.622391	1535.976563	1488.190552	1485.915039	104.761879
220.002670	1435.853638	1488.190552	1444.955688	17.391264
220.382919	1415.373901	1490.466064	1433.578125	24.242508
220.763123	1469.986450	1515.496826	1458.608887	-24.999933
221.143295	1397.169800	1551.905151	1449.506714	33.823502
221.523453	1481.364014	1540.527588	1422.200562	-99.999794
221.903549	1442.680176	1522.323364	1547.354126	131.428635
222.283630	1508.670288	1558.731689	1474.537476	-68.181892
222.663696	1481.364014	1472.261963	1451.782227	325.001343
223.043701	1506.394775	1488.190552	1444.955688	337.499084
223.423676	1513.221313	1545.078613	1467.710938	-142.856979
223.803635	1533.701050	1558.731689	1497.292725	-145.455032
224.183548	1508.670288	1508.670288	1506.394775	0.000000
224.563431	1540.527588	1508.670288	1465.435425	235.714142
224.943283	1547.354126	1481.364014	1504.119263	65.517181
225.323105	1497.292725	1545.078613	1472.261963	-52.381073
225.702881	1572.384888	1554.180664	1513.221313	324.999176
226.082642	1483.639526	1501.843750	1460.884399	-124.999161
226.462357	1549.629639	1549.629639	1520.047852	0.000000
226.842041	1488.190552	1592.864502	1435.853638	-49.999943
227.221695	1476.812988	1608.793213	1520.047852	32.758591
227.601318	1463.159912	1617.895264	1458.608887	-2.941167
227.980911	1499.568237	1579.211426	1438.129150	-77.142929
228.360474	1449.506714	1615.619751	1451.782227	1.369858
228.739990	1417.649414	1599.691162	1410.822876	-3.749985
229.119476	1472.261963	1563.282837	1517.772339	49.999931
229.498932	1485.915039	1595.140137	1458.608887	-24.999887
229.878372	1522.323364	1611.068726	1476.812988	-51.281979
230.257736	1492.741699	1681.609863	1424.476074	-36.144592
230.637115	1479.088501	1727.120239	1454.057739	-10.091758
231.016449	1510.945801	1749.875488	1483.639526	-11.428581
231.395737	1467.710938	1654.303589	1469.986450	1.219508
231.774994	1506.394775	1592.864502	1426.751587	-92.105286
232.154221	1463.159912	1617.895264	1513.221313	32.352917
232.533417	1554.180664	1565.558350	1469.986450	-739.994202
232.912582	1479.088501	1535.976563	1419.924927	-103.999985
233.291702	1524.598877	1622.446289	1522.323364	-2.325573
233.670792	1495.017212	1683.885376	1517.772339	12.048154
234.049866	1510.945801	1604.242188	1542.803101	34.146339
234.428894	1469.986450	1551.905151	1510.945801	50.000000
234.807892	1513.221313	1611.068726	1495.017212	-18.604582
235.186874	1431.302612	1654.303589	1485.915039	24.489771
235.565781	1469.986450	1665.681274	1572.384888	52.325573
235.944687	1408.547363	1656.579102	1465.435425	22.935799
236.323547	1438.129150	1629.272949	1508.670288	36.904747
236.702377	1403.996338	1683.885376	1583.762451	64.227638
237.081177	1495.017212	1638.375000	1529.150024	23.809528
237.459946	1433.578125	1592.864502	1526.874512	58.571480
237.838669	1469.986450	1679.334351	1526.874512	27.173935
238.217361	1501.843750	1697.538574	1451.782227	-25.581425
238.596039	1501.843750	1645.201538	1474.537476	-19.047640
238.974670	1592.864502	1638.375000	1476.812988	-254.999435
239.353271	1460.884399	1683.885376	1488.190552	12.244858
239.731842	1444.955688	1715.742676	1540.527588	35.294125
240.110367	1483.639526	1692.987427	1567.833862	40.217426
240.488876	1492.741699	1729.395752	1529.150024	15.384620
240.867340	1499.568237	1686.160889	1538.252075	20.731705
241.245789	1538.252075	1686.160889	1517.772339	-13.846190
241.624176	1495.017212	1784.008301	1483.639526	-3.937037
242.002548	1467.710938	1811.314575	1460.884399	-1.986748
242.380890	1444.955688	1856.824951	1474.537476	7.182324
242.759186	1533.701050	1872.753662	1483.639526	-14.765120
243.137451	1495.017212	1991.080688	1408.547363	-17.431206
243.515686	1433.578125	2070.723877	1492.741699	9.285721
243.893890	1492.741699	2161.744873	1506.394775	2.040809
244.272049	1465.435425	2088.927979	1472.261963	1.094887
244.650192	1513.221313	2072.999512	1565.558350	9.349603
245.028290	1454.057739	1961.498901	1472.261963	3.587455
245.406357	1533.701050	1925.090576	1540.527588	1.744180
245.784393	1526.874512	1952.396851	1472.261963	-12.834238
246.162384	1397.169800	1868.202637	1433.578125	7.729466
246.540359	1520.047852	1925.090576	1476.812988	-10.674149
246.918289	1497.292725	2075.274902	1538.252075	7.086611
247.296204	1474.537476	2189.051025	1549.629639	10.509551
247.674057	1410.822876	2323.306641	1463.159912	5.735668
248.051895	1515.496826	2521.277100	1565.558350	4.977382
248.429703	1440.404663	2544.032227	1508.670288	6.185567
248.807465	1499.568237	2628.226563	1574.660400	6.653224
249.185196	1542.803101	2507.624023	1495.017212	-4.952825
249.562897	1438.129150	2350.613037	1485.915039	5.236902
249.940567	1495.017212	2214.081787	1533.701050	5.379745
250.318192	1529.150024	2186.775391	1472.261963	-8.650527
250.695801	1433.578125	2068.448486	1426.751587	-1.075265
251.073349	1410.822876	2093.479248	1424.476074	2.000010
251.450882	1440.404663	2013.835938	1476.812988	6.349205
251.828400	1472.261963	1997.907227	1495.017212	4.329012
252.205872	1435.853638	2007.009399	1458.608887	3.984071
252.583313	1529.150024	2072.999512	1506.394775	-4.184108
252.960693	1397.169800	2100.305664	1558.731689	22.977337
253.338074	1533.701050	2202.704102	1479.088501	-8.163274
253.715408	1488.190552	2157.193604	1485.915039	-0.340135
254.092682	1479.088501	2134.438477	1488.190552	1.388884
254.469955	1526.874512	2070.723877	1513.221313	-2.510474
254.847198	1501.843750	2034.315552	1469.986450	-5.982908
255.224365	1488.190552	1986.529663	1517.772339	5.936076
255.601563	1501.843750	1970.601074	1447.231201	-11.650495
255.978683	1449.506714	2018.386963	1485.915039	6.399998
256.355743	1485.915039	1997.907227	1447.231201	-7.555552
256.732819	1508.670288	1991.080688	1467.710938	-8.490561
257.109894	1485.915039	1947.845825	1449.506714	-7.881771
257.486877	1474.537476	1922.815063	1401.720825	-16.243652
257.863831	1463.159912	2052.519775	1476.812988	2.316594
258.240753	1435.853638	2123.060791	1465.435425	4.304639
258.617645	1495.017212	2072.999512	1490.466064	-0.787420
258.994507	1492.741699	2284.622803	1531.425537	4.885056
259.371307	1495.017212	2261.867676	1435.853638	-7.715138
259.748108	1508.670288	2350.613037	1529.150024	2.432438
260.124878	1403.996338	2610.022461	1483.639526	6.603770
260.501617	1447.231201	2778.410889	1497.292725	3.760689
260.878296	1456.333252	3019.616211	1499.568237	2.765653
261.254944	1458.608887	3153.871826	1529.150024	4.161074
261.631561	1513.221313	3108.361328	1547.354126	2.139800
262.008179	1465.435425	2990.034424	1599.691162	8.805970
262.384735	1508.670288	2632.777588	1444.955688	-5.668017
262.761261	1529.150024	2464.388916	1597.415649	7.299272
263.137695	1467.710938	2368.817139	1551.905151	9.343429
263.514191	1488.190552	2332.408936	1481.364014	-0.808622
263.890594	1440.404663	2336.959961	1561.007324	13.451781
264.267029	1520.047852	2252.765625	1506.394775	-1.863347
264.643341	1538.252075	2214.081787	1497.292725	-6.060602
265.019653	1483.639526	2302.827148	1531.425537	5.833342
265.395935	1488.190552	2307.378174	1481.364014	-0.833330
265.772217	1501.843750	2264.143311	1538.252075	4.776118
266.148407	1479.088501	2300.551514	1472.261963	-0.831022
266.524597	1435.853638	2209.530762	1476.812988	5.294114
266.900726	1440.404663	2298.276123	1513.221313	8.488061
267.276855	1415.373901	2468.940186	1540.527588	11.879052
267.652924	1490.466064	2496.246338	1472.261963	-1.809948
268.028992	1520.047852	2509.899414	1547.354126	2.758623
268.404999	1510.945801	2478.042236	1565.558350	5.647063
268.781006	1538.252075	2487.144287	1495.017212	-4.556351
269.156921	1476.812988	2544.032227	1463.159912	-1.279313
269.532837	1495.017212	2425.705078	1520.047852	2.689477
269.908661	1572.384888	2532.654541	1556.456177	-1.658775
270.284546	1499.568237	2512.175049	1531.425537	3.146068
270.660339	1415.373901	2402.949951	1483.639526	6.912442
271.036133	1476.812988	2610.022461	1495.017212	1.606431
271.411835	1467.710938	2666.910400	1501.843750	2.846300
271.787537	1424.476074	2635.052979	1501.843750	6.390975
272.163239	1454.057739	2860.329590	1561.007324	7.605186
272.538849	1406.271851	3076.504150	1520.047852	6.811986
272.914459	1406.271851	3005.962891	1515.496826	6.827879
273.290070	1472.261963	2933.146240	1488.190552	1.090339
273.665588	1522.323364	2860.329590	1510.945801	-0.850337
274.041046	1481.364014	2773.859863	1547.354126	5.105634
274.416565	1419.924927	2769.308838	1504.119263	6.239465
274.791962	1474.537476	2755.655762	1529.150024	4.262881
275.167389	1497.292725	2728.349365	1513.221313	1.293896
275.542755	1451.782227	2625.950928	1576.935913	10.658918
275.918060	1495.017212	2610.022461	1524.598877	2.653052
276.293365	1483.639526	2632.777588	1501.843750	1.584163
276.668640	1440.404663	2751.104736	1454.057739	1.041663
277.043854	1499.568237	2748.829102	1558.731689	4.735877
277.419037	1490.466064	2757.931152	1497.292725	0.538607
277.794189	1479.088501	2707.869873	1540.527588	5.000001
278.169312	1449.506714	2742.002686	1547.354126	7.570423
278.544373	1513.221313	2801.166016	1533.701050	1.590110
278.919464	1526.874512	2787.512939	1488.190552	-3.068601
279.294464	1458.608887	2844.401123	1561.007324	7.389162
279.669464	1463.159912	2798.890625	1508.670288	3.407152
280.044403	1481.364014	2760.206787	1506.394775	1.957298
280.419312	1424.476074	2710.145264	1561.007324	10.619470
280.794189	1442.680176	2701.043213	1565.558350	9.764922
281.169037	1433.578125	2885.360352	1576.935913	9.874607
281.543854	1458.608887	2821.645752	1535.976563	5.676125
281.918671	1465.435425	2921.768799	1572.384888	7.343749
282.293365	1429.027100	3005.962891	1576.935913	9.379508
282.668091	1517.772339	3117.463379	1574.660400	3.556190
283.042786	1492.741699	3122.014648	1556.456177	3.910608
283.417419	1522.323364	3238.066162	1515.496826	-0.397877
283.792053	1467.710938	3224.413086	1567.833862	5.699482
284.166595	1492.741699	3078.779541	1542.803101	3.156381
284.541138	1497.292725	3085.606201	1599.691162	6.446991
284.915619	1458.608887	3060.575439	1561.007324	6.392046
285.290100	1542.803101	3044.646729	1565.558350	1.515154
285.664520	1495.017212	3217.586426	1531.425537	2.113606
286.038940	1465.435425	3238.066162	1508.670288	2.439023
286.413300	1465.435425	3351.842041	1524.598877	3.136304
286.787628	1451.782227	3411.005615	1510.945801	3.019746
287.161896	1490.466064	3524.781738	1620.170776	6.375840
287.536194	1506.394775	3374.597412	1472.261963	-1.827040
287.910400	1435.853638	3540.710449	1608.793213	8.216215
288.284607	1433.578125	3360.944336	1529.150024	4.958679
288.658752	1490.466064	3178.902588	1570.109375	4.716986
289.032867	1501.843750	3103.810303	1576.935913	4.687499
289.406921	1403.996338	3083.330566	1592.864502	11.246610
289.781006	1422.200562	3085.606201	1599.691162	10.670314
290.154999	1417.649414	3217.586426	1567.833862	8.343872
290.529022	1467.710938	3176.626953	1595.140137	7.456727
290.902954	1460.884399	3354.117676	1588.313477	6.730765
291.276825	1504.119263	3408.730225	1636.099487	6.929511
291.650757	1488.190552	3465.618164	1581.486938	4.718069
292.024597	1501.843750	3426.934326	1658.854614	8.156025
292.398407	1469.986450	3388.250488	1576.935913	5.575325
292.772156	1483.639526	3315.433838	1590.588989	5.838508
293.145905	1469.986450	3194.831299	1615.619751	8.443270
293.519592	1463.159912	3238.066162	1613.344238	8.461535
293.893280	1529.150024	3197.106689	1622.446289	5.593447
294.266907	1479.088501	3354.117676	1574.660400	5.097089
294.640533	1499.568237	3358.668701	1524.598877	1.346384
295.014069	1447.231201	3467.893799	1590.588989	7.094593
295.387604	1490.466064	3545.261475	1590.588989	4.872647
295.761078	1438.129150	3568.016602	1572.384888	6.303419
296.134552	1467.710938	3649.935303	1620.170776	6.986442
296.507996	1454.057739	3622.629150	1624.721802	7.869885
296.881378	1474.537476	3629.455566	1649.752563	8.130940
297.254730	1463.159912	3711.374512	1640.650513	7.894736
297.628021	1533.701050	4016.294189	1665.681274	5.316224
298.001282	1449.506714	4041.324951	1581.486938	5.092186
298.374573	1460.884399	4029.947266	1588.313477	4.960138
298.747803	1513.221313	4132.345703	1663.405762	5.734147
299.121002	1499.568237	3975.334961	1647.477051	5.974263
299.494141	1465.435425	3718.200928	1563.282837	4.343435
299.867188	1433.578125	3740.956299	1604.242188	7.396450
300.240265	1483.639526	3665.864014	1604.242188	5.526592
300.613312	1447.231201	3665.864014	1606.517700	7.179489
300.986328	1467.710938	3449.689453	1542.803101	3.788748
301.359314	1451.782227	3488.373291	1647.477051	9.608940
301.732239	1442.680176	3392.801514	1576.935913	6.884481
302.105103	1451.782227	3376.872803	1567.833862	6.028373
302.477997	1469.986450	3504.302002	1581.486938	5.480983
302.850830	1474.537476	3529.332764	1558.731689	4.097450
303.223602	1517.772339	3492.924316	1529.150024	0.576041
303.596375	1524.598877	3333.637939	1583.762451	3.270442
303.969116	1447.231201	3301.780762	1586.037964	7.484662
304.341766	1467.710938	3379.148438	1617.895264	7.857140
304.714478	1488.190552	3390.525879	1535.976563	2.511966
305.087067	1474.537476	3194.831299	1636.099487	9.391536
305.459656	1506.394775	3379.148438	1574.660400	3.645200
305.832214	1520.047852	3267.647949	1576.935913	3.255210
306.204681	1479.088501	3260.821289	1535.976563	3.192850
306.577148	1504.119263	3247.168213	1638.375000	7.702350
306.949646	1474.537476	3365.495361	1631.548462	8.303251
307.322021	1476.812988	3342.739990	1613.344238	7.317073
307.694397	1529.150024	3240.341553	1629.272949	5.851065
308.066742	1449.506714	3242.617188	1576.935913	7.106601
308.439026	1504.119263	3315.433838	1617.895264	6.281405
308.811279	1388.067749	3404.179199	1626.997314	11.851009
309.183502	1394.894287	3558.914551	1520.047852	5.783382
309.555695	1429.027100	3634.006836	1695.262939	12.074299
309.927887	1540.527588	3672.690674	1667.956787	5.976522
310.299988	1447.231201	3556.638916	1524.598877	3.667744
310.672058	1449.506714	3629.455566	1608.793213	7.306892
311.044128	1469.986450	3695.445801	1576.935913	4.805725
311.416168	1492.741699	3608.976074	1572.384888	3.763439
311.788147	1504.119263	3706.823486	1551.905151	2.169419
312.160065	1504.119263	3649.935303	1626.997314	5.726402
312.531982	1442.680176	3754.609375	1640.650513	8.562993
312.903870	1460.884399	3652.210938	1590.588989	5.918998
313.275696	1426.751587	3563.465576	1617.895264	8.945684
313.647491	1506.394775	3620.353516	1624.721802	5.597414
314.019318	1408.547363	3413.281250	1574.660400	8.286039
314.391022	1490.466064	3461.067139	1570.109375	4.041574
314.762726	1440.404663	3533.883789	1567.833862	6.086958
315.134369	1422.200562	3668.139648	1547.354126	5.572438
315.505981	1447.231201	3725.027588	1626.997314	7.892107
315.877594	1479.088501	3845.630127	1604.242188	5.288464
316.249146	1456.333252	3706.823486	1592.864502	6.066734
316.620636	1438.129150	3674.966064	1558.731689	5.391655
316.992157	1488.190552	3490.648926	1640.650513	7.613639
317.363586	1458.608887	3458.791504	1620.170776	8.077357
317.735016	1495.017212	3219.861816	1636.099487	8.179420
318.106354	1529.150024	3319.984863	1663.405762	7.496824
318.477722	1474.537476	3356.393066	1631.548462	8.343413
318.849060	1513.221313	3388.250488	1599.691162	4.611653
319.220306	1515.496826	3659.037354	1629.272949	5.307860
319.591522	1458.608887	3492.924316	1570.109375	5.480983
319.962738	1535.976563	3634.006836	1520.047852	-0.759222
320.333923	1483.639526	3558.914551	1576.935913	4.495616
320.705017	1440.404663	3486.097900	1565.558350	6.117911
321.076111	1447.231201	3561.189941	1508.670288	2.906352
321.447144	1444.955688	3554.363525	1567.833862	5.825245
321.818176	1508.670288	3365.495361	1540.527588	1.715687
322.189178	1520.047852	3385.974854	1583.762451	3.414635
322.560120	1483.639526	3315.433838	1565.558350	4.472054
322.931030	1495.017212	3483.822266	1570.109375	3.775743
323.301910	1508.670288	3579.394287	1638.375000	6.263737
323.672729	1419.924927	3681.792725	1513.221313	4.124750
324.043549	1458.608887	3802.395264	1633.823975	7.475728
324.414337	1458.608887	3934.375488	1597.415649	5.606617
324.785095	1558.731689	4016.294189	1563.282837	0.185189
325.155792	1435.853638	4080.008789	1570.109375	5.077453
325.526428	1501.843750	4107.314941	1649.752563	5.676855
325.897034	1504.119263	3988.988037	1604.242188	4.029305
326.267670	1522.323364	4034.498291	1551.905151	1.177537
326.638184	1522.323364	4082.284424	1583.762451	2.400001
327.008728	1403.996338	3948.028564	1604.242188	7.871200
327.379211	1451.782227	4125.519043	1583.762451	4.936171
327.749634	1444.955688	4050.427002	1563.282837	4.541488
328.120026	1497.292725	3868.385254	1663.405762	7.005759
328.490417	1485.915039	3847.905762	1633.823975	6.262045
328.860748	1510.945801	3781.915527	1558.731689	2.104206
329.231079	1435.853638	3727.302979	1542.803101	4.667328
329.601318	1406.271851	3763.711426	1586.037964	7.625482
329.971558	1426.751587	3857.007813	1617.895264	7.865165
330.341736	1417.649414	3820.599365	1611.068726	8.049244
330.711914	1408.547363	3920.722412	1513.221313	4.166666
331.082062	1392.618774	3754.609375	1485.915039	3.949900
331.452148	1454.057739	3720.476563	1608.793213	6.827311
331.822174	1474.537476	3788.742188	1588.313477	4.916420
332.192200	1458.608887	3957.130615	1590.588989	5.282328
332.562134	1490.466064	3977.610352	1535.976563	1.829829
332.932129	1508.670288	3975.334961	1604.242188	3.874540
333.302063	1565.558350	4109.590332	1561.007324	-0.178890
333.671906	1483.639526	4293.907715	1567.833862	2.995954
334.041718	1438.129150	4230.193359	1570.109375	4.726977
334.411499	1506.394775	4241.570801	1572.384888	2.412646
334.781281	1501.843750	4339.417969	1599.691162	3.448277
335.151001	1535.976563	4330.315918	1597.415649	2.198698
335.520721	1465.435425	4139.172363	1581.486938	4.340424
335.890350	1474.537476	4259.774902	1599.691162	4.493466
336.259979	1492.741699	4173.305176	1572.384888	2.971136
336.629547	1554.180664	4225.642090	1545.078613	-0.340714
336.999084	1458.608887	4175.580566	1661.130127	7.453933
337.368622	1481.364014	4134.621094	1565.558350	3.173244
337.738098	1513.221313	4130.070313	1586.037964	2.782608
338.107513	1474.537476	4341.693848	1510.945801	1.269841
338.476898	1444.955688	4155.101074	1595.140137	5.541564
338.846252	1433.578125	4200.611328	1561.007324	4.605265
339.215576	1481.364014	4289.356934	1567.833862	3.079418
339.584869	1435.853638	4157.376465	1535.976563	3.678930
339.954132	1510.945801	4282.530273	1624.721802	4.105089
340.323334	1492.741699	4175.580566	1599.691162	3.986429
340.692505	1454.057739	4175.580566	1599.691162	5.351174
341.061646	1495.017212	3975.334961	1608.793213	4.587154
341.430786	1454.057739	4243.846191	1595.140137	5.057100
341.799896	1422.200562	4232.468750	1620.170776	7.044531
342.168915	1524.598877	4337.142578	1626.997314	3.640777
342.537903	1463.159912	4512.357910	1633.823975	5.597015
342.906830	1422.200562	4382.652832	1613.344238	6.456571
343.275757	1542.803101	4553.316895	1606.517700	2.116403
343.644684	1392.618774	4475.949219	1622.446289	7.453872
344.013550	1485.915039	4669.368652	1683.885376	6.218729
344.382355	1504.119263	4482.775879	1649.752563	4.889227
344.751129	1490.466064	4776.318359	1565.558350	2.285321
345.119873	1479.088501	4981.115234	1617.895264	3.963612
345.488586	1413.098389	5094.891113	1663.405762	6.798519
345.857269	1499.568237	5224.595703	1665.681274	4.459378
346.225891	1451.782227	5210.942871	1613.344238	4.297822
346.594482	1497.292725	5274.657227	1636.099487	3.674699
346.963043	1510.945801	5315.616699	1626.997314	3.050238
347.331543	1538.252075	5181.360840	1647.477051	2.998126
347.700043	1531.425537	4869.614746	1692.987427	4.839806
348.068512	1476.812988	4849.134766	1706.640625	6.815116
348.436951	1460.884399	4776.318359	1677.058838	6.520246
348.805328	1451.782227	4673.919922	1652.028076	6.214689
349.173645	1558.731689	4746.736328	1658.854614	3.140614
349.541931	1447.231201	4639.787109	1592.864502	4.561652
349.910217	1535.976563	4758.113770	1686.160889	4.661016
350.278473	1479.088501	4846.859375	1608.793213	3.851352
350.646667	1472.261963	4917.400391	1647.477051	5.085865
351.014801	1513.221313	4931.053711	1679.334351	4.860187
351.382935	1403.996338	4958.359863	1702.089600	8.386684
351.751007	1397.169800	5103.993164	1699.814087	8.164519
352.119049	1431.302612	4946.982422	1695.262939	7.508088
352.487091	1454.057739	5035.727539	1597.415649	4.002544
352.855072	1417.649414	5074.411621	1670.232300	6.907282
353.222992	1515.496826	5056.207031	1652.028076	3.856041
353.590881	1435.853638	5172.258789	1686.160889	6.699146
353.958740	1476.812988	5254.177734	1647.477051	4.518072
354.326599	1408.547363	5465.800781	1754.426514	8.524958
354.694397	1526.874512	5493.107422	1784.008301	6.483073
355.062134	1438.129150	5634.189453	1749.875488	7.429501
355.429840	1495.017212	5545.444336	1781.732788	7.078650
355.797516	1458.608887	5795.751465	1834.069824	8.656874
356.165192	1497.292725	5920.905273	1784.008301	6.481481
356.532776	1465.435425	6068.813965	1797.661377	7.217003
356.900360	1517.772339	6175.763672	1827.243164	6.643869
357.267883	1467.710938	6305.468262	1879.580200	8.513640
357.635376	1488.190552	6478.407715	1847.722900	7.204743
358.002808	1431.302612	6847.041992	1824.967651	7.268907
358.370270	1490.466064	6990.399902	1931.917114	8.026480
358.737640	1442.680176	7217.952148	1804.488037	6.264776
359.105011	1579.211426	6997.226563	1977.427612	7.349854
359.472321	1417.649414	6758.296875	1843.171875	7.967619
359.839569	1442.680176	6583.081543	1813.590088	7.215583
360.206787	1504.119263	6539.846680	1845.447388	6.778129
360.574005	1538.252075	6969.920410	1922.815063	7.080016
360.941193	1515.496826	7097.349609	1945.570313	7.704852
361.308319	1472.261963	7475.085938	2020.662476	9.135709
361.675415	1517.772339	7759.525879	2043.417725	8.421438
362.042450	1449.506714	8376.192383	2009.284912	8.081472
362.409424	1463.159912	8788.061523	2059.346436	8.139174
362.776428	1479.088501	8856.327148	2070.723877	8.019740
363.143402	1510.945801	8792.612305	2125.336426	8.437500
363.510284	1456.333252	8389.844727	2164.020264	10.206761
363.877136	1410.822876	7545.626953	2016.111450	9.866469
364.243988	1510.945801	6999.501953	2036.591064	9.577114
364.610779	1444.955688	6969.920410	2016.111450	10.337727
364.977539	1463.159912	6710.510742	2011.560425	10.450998
365.344269	1490.466064	6403.315430	1931.917114	8.985641
365.710938	1460.884399	6485.234375	1950.121338	9.737318
366.077576	1513.221313	6307.743652	1970.601074	9.539631
366.444183	1474.537476	6289.539551	1968.325439	10.255198
366.810760	1479.088501	6284.988281	1970.601074	10.227275
367.177277	1438.129150	6291.814941	2016.111450	11.908112
367.543823	1456.333252	6353.253906	2034.315552	11.802974
367.910248	1517.772339	6173.487793	2000.182739	10.361682
368.276642	1460.884399	6150.732910	1968.325439	10.819987
368.643036	1499.568237	6098.395508	1936.468262	9.500249
369.009399	1435.853638	6148.457031	2000.182739	11.974891
369.375671	1458.608887	5925.456055	2007.009399	12.277127
369.741974	1517.772339	5772.996094	1952.396851	10.213905
370.108215	1474.537476	6030.129883	1991.080688	11.338662
370.474396	1456.333252	5939.109375	1993.356201	11.979695
370.840546	1474.537476	6096.120117	2082.101563	13.146235
371.206665	1499.568237	6237.202637	2157.193604	13.880880
371.572784	1524.598877	6241.753418	2098.030273	12.156300
371.938843	1469.986450	6237.202637	2009.284912	11.312650
372.304840	1476.812988	6300.916992	2093.479248	12.783022
372.670807	1476.812988	6441.999512	2179.948975	14.161321
373.036713	1431.302612	6353.253906	2095.754639	13.499769
373.402649	1438.129150	6321.396973	2170.846924	15.004662
373.768524	1413.098389	6280.437500	2138.989502	14.913511
374.134308	1388.067749	6362.355957	2173.122314	15.782249
374.500122	1499.568237	6482.958984	2270.969727	15.479450
374.865875	1476.812988	6562.602051	2168.571289	13.601789
375.231567	1488.190552	6376.009277	2189.051025	14.338921
375.597260	1442.680176	6687.755859	2195.877686	14.360088
375.962891	1485.915039	6630.867676	2289.173828	15.612559
376.328461	1406.271851	6671.827148	2350.613037	17.934313
376.694031	1381.241089	6801.531738	2266.418701	16.330814
377.059540	1460.884399	7174.717285	2366.541748	15.850260
377.425049	1513.221313	7481.912598	2491.695313	16.393442
377.790497	1442.680176	7811.862793	2443.909424	15.719902
378.155945	1529.150024	8068.996582	2534.930176	15.379262
378.521301	1526.874512	7918.812500	2544.032227	15.913135
378.886597	1535.976563	7927.914551	2530.379150	15.557137
379.251892	1499.568237	7525.147461	2548.583252	17.409365
379.617157	1497.292725	7409.095703	2557.685303	17.936874
379.982422	1490.466064	7183.819336	2453.011475	16.906475
380.347595	1556.456177	6956.267090	2371.092773	15.086390
380.712738	1463.159912	6906.205566	2489.419678	18.854513
381.077820	1390.343262	7095.073730	2450.735840	18.587952
381.442902	1533.701050	7067.767578	2541.756836	18.215462
381.807953	1474.537476	7049.563477	2530.379150	18.938776
382.172974	1467.710938	7019.981445	2564.511963	19.754099
382.537933	1469.986450	6903.930176	2532.654541	19.556110
382.902832	1454.057739	6938.062988	2557.685303	20.124479
383.267700	1474.537476	6992.675293	2671.461426	21.690723
383.632538	1529.150024	7293.043945	2710.145264	20.489538
383.997345	1447.231201	7188.370117	2844.401123	24.336111
384.362152	1458.608887	7436.401855	2796.614990	22.382944
384.726898	1504.119263	7536.524902	2833.023438	22.029423
385.091553	1508.670288	7591.137207	2878.533936	22.521515
385.456238	1535.976563	7586.586426	2903.564453	22.602480
385.820862	1465.435425	7693.535645	2889.911377	22.871758
386.185425	1474.537476	7434.126465	2990.034424	25.429556
386.549988	1413.098389	7704.913574	2930.870850	24.122965
386.914490	1485.915039	7914.261230	3030.993652	24.035398
387.278961	1408.547363	7773.179199	3190.280273	27.994282
387.643372	1465.435425	7939.291992	3149.320801	26.010546
388.007782	1454.057739	7916.537109	3165.249512	26.478874
388.372101	1381.241089	7975.700195	3215.310791	27.812284
388.736450	1410.822876	7800.485352	3333.637939	30.092592
389.100739	1363.036987	8009.833008	3340.464600	29.750088
389.464966	1467.710938	8039.415039	3319.984863	28.185595
389.829163	1510.945801	7889.230469	3451.965088	30.431683
390.193329	1492.741699	7848.271484	3424.658691	30.397419
390.557495	1481.364014	7952.945313	3458.791504	30.555555
390.921570	1472.261963	8091.751953	3583.945313	31.900997
391.285614	1440.404663	8084.925293	3597.598389	32.465755
391.649597	1463.159912	8528.652344	3745.507324	32.302738
392.013550	1508.670288	8851.776367	3986.712402	33.746510
392.377502	1438.129150	9165.797852	4080.008789	34.187279
392.741455	1403.996338	9306.879883	4218.815430	35.617619
393.105316	1533.701050	9306.879883	4221.091309	34.572601
393.469086	1522.323364	9072.500977	4234.744141	35.925259
393.832886	1501.843750	8788.061523	4198.335938	37.008121
394.196655	1479.088501	8972.378906	4416.785645	39.204369
394.560333	1440.404663	9186.277344	4512.357910	39.659225
394.924042	1485.915039	9363.768555	4498.704590	38.243786
395.287659	1460.884399	9240.889648	4619.307129	40.596668
395.651245	1467.710938	9170.348633	4655.715332	41.388477
396.014771	1403.996338	8958.725586	4687.572754	43.463852
396.378296	1469.986450	8606.019531	4592.000977	43.750000
396.741791	1490.466064	8592.366211	4639.787109	44.344765
397.105255	1474.537476	8492.243164	4696.674805	45.914398
397.468628	1463.159912	8282.895508	4644.337891	46.646648
397.832001	1399.445313	8273.793945	4683.021973	47.765640
398.195313	1499.568237	8394.396484	5008.421387	50.891087
398.558624	1406.271851	8276.069336	4876.440918	50.513409
398.921844	1424.476074	8342.059570	4931.053711	50.690788
399.285095	1460.884399	8294.273438	5081.237793	52.980350
399.648254	1515.496826	8214.629883	5197.289551	54.959244
400.011383	1374.414551	8344.334961	5249.626465	55.599083
400.374451	1492.741699	8278.344727	5263.279785	55.566734
400.737549	1488.190552	8278.344727	5381.606934	57.339146
401.100586	1481.364014	8423.977539	5402.086426	56.473293
401.463562	1476.812988	8189.599121	5481.729492	59.661018
401.826508	1401.720825	8537.753906	5602.332031	58.864796
402.189392	1426.751587	8187.323730	5511.311523	60.417370
402.552246	1476.812988	8501.345703	5654.669434	59.475224
402.915070	1444.955688	8332.957031	5970.966797	65.708626
403.277893	1460.884399	8594.641602	6048.334473	64.306229
403.640656	1506.394775	8565.060547	6157.559082	65.892960
404.003326	1483.639526	9047.470703	6485.234375	66.125153
404.366028	1483.639526	8856.327148	6633.143066	69.845673
404.728699	1485.915039	9227.237305	6883.450195	69.723686
405.091248	1440.404663	9534.432617	7131.482422	70.312057
405.453857	1435.853638	9575.391602	7136.033203	70.030754
405.816345	1463.159912	9466.166992	7108.727051	70.543076
406.178833	1495.017212	9538.983398	7388.616211	73.267326
406.541260	1476.812988	9759.708984	7336.279297	70.741753
406.903687	1540.527588	9593.595703	7258.911133	71.008759
407.266052	1447.231201	9429.757813	7365.860840	74.144821
407.628387	1440.404663	9322.808594	7172.441406	72.719398
407.990662	1497.292725	9031.541992	7076.869629	74.056183
408.352905	1469.986450	9165.797852	7215.676270	74.659966
408.715118	1454.057739	9277.297852	7176.992676	73.153000
409.077332	1501.843750	9149.869141	7283.941895	75.602493
409.439484	1476.812988	9147.593750	7445.503906	77.810738
409.801575	1481.364014	9147.593750	7404.544922	77.263283
410.163605	1504.119263	9293.226563	7557.004395	77.709610
410.525635	1499.568237	9527.605469	7686.709473	77.069168
410.887604	1449.506714	9586.769531	7820.964844	78.299774
411.249573	1513.221313	9595.871094	7948.394043	79.617119
411.611481	1485.915039	9650.483398	7962.047363	79.319962
411.973328	1504.119263	9616.350586	7757.250488	77.082756
412.335144	1488.190552	9686.891602	8064.445801	80.210938
412.696930	1524.598877	9395.625000	7855.097656	80.427872
413.058685	1454.057739	9309.155273	7632.096680	78.650063
413.420410	1501.843750	9377.420898	7775.454590	79.659065
413.782104	1483.639526	9593.595703	7937.016602	79.573517
414.143707	1492.741699	9454.789063	7916.537109	80.680199
414.505310	1392.618774	9472.993164	7736.770508	78.513092
414.866852	1444.955688	9548.084961	8068.996582	81.746704
415.228394	1467.710938	9705.096680	8087.201172	80.359116
415.589874	1485.915039	9752.881836	8291.998047	82.328659
415.951324	1460.884399	9887.137695	8130.436035	79.152046
416.312683	1406.271851	10305.833984	8467.212891	79.340317
416.674072	1397.169800	10549.314453	8483.141602	77.424164
417.035370	1426.751587	10656.263672	9011.062500	82.174561
417.396667	1479.088501	11134.123047	9022.440430	78.128693
417.757935	1451.782227	11020.347656	9147.593750	80.428062
418.119141	1483.639526	11140.950195	9240.889648	80.325157
418.480286	1520.047852	11655.217773	9495.748047	78.693306
418.841400	1526.874512	12269.608398	9996.363281	78.839226
419.202484	1413.098389	12551.772461	10319.487305	79.959145
419.563568	1435.853638	12742.916016	10640.334961	81.404709
419.924591	1440.404663	13721.390625	11059.031250	78.321289
420.285553	1460.884399	13939.840820	11334.369141	79.121078
420.646484	1463.159912	14547.404297	11900.973633	79.773911
421.007355	1485.915039	14850.048828	12180.863281	80.027245
421.368225	1458.608887	15792.114258	12797.529297	79.107788
421.729065	1481.364014	16094.758789	13118.376953	79.632507
422.089874	1469.986450	16784.242188	13432.399414	78.112923
422.450592	1508.670288	16640.882813	13377.787109	78.436096
422.811279	1454.057739	16563.515625	13195.745117	77.710846
423.171936	1435.853638	16431.535156	13193.469727	78.406677
423.532593	1456.333252	16083.380859	12897.652344	78.220291
423.893127	1401.720825	16492.974609	13143.408203	77.804588
424.253723	1456.333252	16754.660156	13325.450195	77.584412
424.614197	1435.853638	16577.169922	13432.399414	79.230537
424.974670	1440.404663	17266.652344	13805.584961	78.130844
425.335052	1403.996338	17400.908203	13996.728516	78.719772
425.695496	1442.680176	16938.976563	13395.991211	77.136559
426.055817	1485.915039	16970.833984	13179.816406	75.518005
426.416168	1563.282837	16725.078125	13154.786133	76.452049
426.776398	1460.884399	15855.829102	12513.088867	76.778374
427.136627	1433.578125	15321.082031	12169.485352	77.306244
427.496826	1463.159912	15205.030273	11932.831055	76.188110
427.856995	1488.190552	14615.669922	11473.175781	76.061707
428.217102	1492.741699	14026.310547	11088.613281	76.561363
428.577179	1472.261963	14110.504883	10920.224609	74.756935
428.937195	1467.710938	13409.644531	10724.529297	77.515236
429.297180	1444.955688	13282.214844	10319.487305	74.971169
429.657135	1442.680176	13550.726563	10369.547852	73.726730
430.017059	1472.261963	13475.633789	10369.547852	74.123222
430.376984	1490.466064	13047.835938	9962.230469	73.301834
430.736786	1408.547363	12818.008789	9821.147461	73.733543
431.096588	1508.670288	12833.937500	9691.443359	72.252357
431.456360	1465.435425	13095.622070	10062.352539	73.918999
431.816071	1454.057739	12474.405273	9827.974609	75.985962
432.175781	1444.955688	12456.201172	9675.514648	74.746849
432.535400	1390.343262	12576.803711	9673.239258	74.043938
432.895020	1440.404663	12563.150391	9586.769531	73.240585
433.254578	1454.057739	12688.303711	9639.106445	72.858017
433.614105	1422.200562	12827.110352	9746.055664	72.984840
433.973602	1451.782227	13273.113281	9953.127930	71.915298
434.333038	1449.506714	13514.318359	9934.923828	70.331947
434.692444	1454.057739	13339.102539	9950.852539	71.491486
435.051819	1479.088501	13671.329102	10299.006836	72.340424
435.411133	1440.404663	13502.940430	10126.067383	72.005280
435.770416	1469.986450	13047.835938	9630.003906	70.479561
436.129669	1472.261963	13598.512695	10223.915039	72.171135
436.488861	1417.649414	13047.835938	9946.301758	73.332031
436.848083	1454.057739	13325.450195	9755.157227	69.925240
437.207184	1497.292725	13136.582031	9807.495117	71.397850
437.566254	1472.261963	13534.797852	9923.545898	70.062248
437.925293	1504.119263	13411.919922	9955.403320	70.972672
438.284363	1540.527588	13623.542969	10082.833008	70.696800
438.643311	1472.261963	13757.798828	10192.057617	70.976105
439.002258	1517.772339	13898.880859	10087.383789	69.215218
439.361145	1501.843750	14510.996094	10490.151367	69.092186
439.719971	1515.496826	14982.029297	10474.222656	66.525856
440.078827	1481.364014	14761.303711	10597.100586	68.642906
440.437592	1408.547363	15214.131836	11122.746094	70.364273
440.796295	1497.292725	15271.020508	10792.794922	67.487190
441.155029	1508.670288	16420.158203	11700.727539	68.350372
441.513672	1490.466064	16736.455078	11885.044922	68.179108
441.872253	1458.608887	16925.324219	11809.953125	66.926582
442.230865	1533.701050	16543.037109	11680.248047	67.601570
442.589386	1481.364014	16420.158203	11348.022461	66.047218
442.947876	1469.986450	16190.330078	11498.207031	68.124908
443.306335	1517.772339	16019.666016	11022.623047	65.542137
443.664764	1417.649414	15088.978516	10665.366211	67.643143
444.023102	1426.751587	15482.643555	10779.141602	66.537148
444.381500	1390.343262	15446.235352	10679.019531	66.083855
444.739777	1447.231201	15428.031250	10553.865234	65.136719
445.098022	1524.598877	15573.664063	10742.733398	65.613861
445.456238	1492.741699	15626.000977	10826.927734	66.044113
445.814423	1442.680176	15867.207031	10920.224609	65.704369
446.172577	1422.200562	16875.261719	11379.879883	64.438232
446.530701	1499.568237	16538.484375	11257.000977	64.881226
446.888733	1472.261963	17278.029297	11627.911133	64.252808
447.246765	1381.241089	17999.369141	12098.944336	64.494041
447.604736	1472.261963	17749.062500	11789.473633	63.385994
447.962677	1508.670288	17931.103516	12014.750000	63.973953
448.320587	1456.333252	18245.125000	12340.149414	64.827873
448.678436	1438.129150	17942.482422	11768.993164	62.594784
449.036255	1490.466064	17539.714844	11459.522461	62.115410
449.394043	1449.506714	16543.037109	10986.214844	63.184078
449.751770	1460.884399	17016.343750	11181.909180	62.492687
450.109467	1474.537476	16590.822266	10826.927734	61.869637
450.467163	1444.955688	16643.158203	10556.140625	59.949093
450.824768	1474.537476	16090.208008	10537.936523	62.011517
451.182343	1501.843750	16087.931641	10765.489258	63.510143
451.539886	1394.894287	15441.684570	10010.015625	61.331600
451.897369	1438.129150	15503.123047	10032.771484	61.106621
452.254822	1510.945801	15327.908203	9771.085938	59.782608
452.612274	1476.812988	15666.960938	10046.424805	60.391273
452.969635	1476.812988	15368.867188	10210.261719	62.866505
453.326965	1426.751587	15589.592773	9939.474609	60.106041
453.684326	1465.435425	15355.214844	10041.873047	61.746391
454.041534	1522.323364	15068.499023	9705.096680	60.406521
454.398773	1533.701050	14740.824219	9416.105469	59.682976
454.755951	1524.598877	14574.710938	9329.635742	59.808197
455.113098	1488.190552	14112.780273	8954.174805	59.138432
455.470215	1449.506714	14222.004883	9195.379883	60.644936
455.827240	1469.986450	14094.576172	8899.561523	58.850033
456.184265	1474.537476	13871.575195	8742.550781	58.627014
456.541260	1433.578125	13903.431641	8860.877930	59.562046
456.898193	1504.119263	13755.523438	8869.980469	60.122589
457.255096	1515.496826	14103.677734	8869.980469	58.423721
457.611969	1490.466064	13723.666016	8710.693359	59.021576
457.968781	1419.924927	13960.320313	8772.132813	58.628201
458.325531	1356.210449	14108.228516	8829.020508	58.601002
458.682312	1510.945801	14950.171875	9024.715820	55.909245
459.039001	1435.853638	15239.163086	9443.411133	58.011868
459.395630	1501.843750	15960.502930	9864.382813	57.837582
459.752289	1456.333252	16902.568359	10405.957031	57.940487
460.108856	1492.741699	18600.107422	11175.083008	56.597504
460.465363	1499.568237	18911.853516	11775.820313	59.017250
460.821899	1449.506714	19389.712891	11684.798828	57.052250
461.178345	1431.302612	18784.423828	11384.430664	57.356415
461.534760	1501.843750	18786.699219	11352.573242	56.990524
461.891144	1454.057739	18099.492188	10631.233398	55.133293
462.247467	1474.537476	17073.232422	10230.741211	56.134209
462.603760	1522.323364	16875.261719	10128.342773	56.054543
462.960052	1451.782227	16329.137695	9707.372070	55.490978
463.316254	1469.986450	15887.686523	9343.288086	54.608582
463.672424	1458.608887	15252.816406	9334.186523	57.093369
464.028564	1481.364014	14870.528320	8885.909180	55.302517
464.384644	1440.404663	14677.109375	8810.816406	55.681618
464.740723	1417.649414	14743.099609	8794.887695	55.362019
465.096741	1408.547363	14715.792969	8624.223633	54.223663
465.452698	1444.955688	14586.087891	8535.478516	53.956715
465.808655	1454.057739	14877.355469	8719.795898	54.127819
466.164520	1449.506714	14733.997070	8430.804688	52.552246
466.520355	1485.915039	15318.805664	8792.612305	52.821190
466.876190	1526.874512	15145.866211	8833.571289	53.650787
467.231964	1558.731689	15391.623047	8995.133789	53.758842
467.587677	1481.364014	15958.227539	9056.573242	52.326313
467.943390	1501.843750	16267.698242	9127.114258	51.641239
468.299011	1556.456177	15851.278320	9015.613281	52.180832
468.654633	1545.078613	15582.766602	8678.835938	50.818607
469.010223	1513.221313	15512.225586	8840.398438	52.340706
469.365723	1472.261963	15489.469727	8703.867188	51.590912
469.721191	1542.803101	15218.683594	8585.540039	51.497501
470.076660	1438.129150	14697.588867	8262.416016	51.467308
470.432068	1467.710938	14966.100586	8255.589844	50.286583
470.787445	1469.986450	14779.507813	8353.436523	51.718239
471.142792	1465.435425	14843.222656	8114.507324	49.702328
471.498016	1495.017212	14772.680664	8171.395020	50.282780
471.853271	1492.741699	14995.681641	8200.976563	49.679810
472.208496	1408.547363	15018.437500	8219.180664	50.041794
472.563660	1447.231201	14975.202148	7968.874023	48.208580
472.918762	1524.598877	15143.590820	8291.998047	49.690899
473.273865	1490.466064	15491.746094	8235.109375	48.171619
473.628876	1501.843750	16097.034180	8385.293945	47.162457
473.983917	1483.639526	15933.196289	8485.416992	48.456692
474.338837	1479.088501	15773.910156	8528.652344	49.315510
474.693787	1410.822876	16097.034180	8512.723633	48.357613
475.048645	1467.710938	15705.644531	8278.344727	47.834427
475.403503	1479.088501	16006.013672	8494.519531	48.292610
475.758270	1449.506714	16188.054688	8540.029297	48.108692
476.113037	1451.782227	16281.351563	8408.049805	46.908089
476.467773	1406.271851	16292.728516	8455.834961	47.355545
476.822418	1451.782227	17332.642578	8940.521484	47.155754
477.177063	1479.088501	17048.201172	8697.040039	46.360714
477.531647	1479.088501	17118.742188	8738.000000	46.413506
477.886200	1492.741699	17651.214844	8999.684570	46.458244
478.240723	1522.323364	18108.593750	9115.736328	45.781319
478.595184	1463.159912	18602.382813	9206.756836	45.180561
478.949585	1476.812988	18857.240234	9206.756836	44.474991
479.303986	1410.822876	18918.679688	9074.777344	43.774372
479.658325	1492.741699	19034.732422	9386.523438	44.999352
480.012634	1444.955688	19198.568359	9375.145508	44.668034
480.366913	1469.986450	19596.785156	9741.504883	45.631435
480.721130	1419.924927	19769.724609	9670.963867	44.965282
481.075317	1438.129150	20520.646484	9834.800781	44.001907
481.429474	1442.680176	21492.294922	10233.016602	43.842915
481.783569	1499.568237	22404.777344	10547.039063	43.278545
482.137604	1545.078613	22978.208984	10808.723633	43.221146
482.491669	1435.853638	24741.738281	11718.931641	44.122238
482.845612	1472.261963	27449.607422	12656.446289	43.053608
483.199554	1510.945801	30141.548828	13948.942383	43.443012
483.553436	1517.772339	34849.601563	15737.501953	42.661114
483.907318	1506.394775	40982.128906	18377.105469	42.736916
484.261139	1438.129150	47715.394531	21528.703125	43.413486
484.614899	1431.302612	51645.218750	23968.060547	44.881496
484.968628	1490.466064	53203.953125	24011.294922	43.549232
485.322357	1451.782227	51103.644531	22944.076172	43.285976
485.675964	1499.568237	47895.160156	21389.896484	42.871159
486.029572	1374.414551	44331.695313	19703.734375	42.668716
486.383148	1401.720825	41557.835938	18368.003906	42.250809
486.736694	1485.915039	38729.363281	17216.589844	42.237427
487.090149	1410.822876	37864.667969	16872.986328	42.415730
487.443604	1495.017212	38840.863281	17318.988281	42.371433
487.796997	1510.945801	40010.480469	17803.673828	42.319286
488.150360	1449.506714	41054.945313	17960.685547	41.689175
488.503693	1456.333252	42338.339844	18522.740234	41.745518
488.856964	1397.169800	41735.328125	18515.912109	42.438084
489.210175	1463.159912	40301.750000	17662.591797	41.709629
489.563416	1419.924927	38449.476563	16813.822266	41.571926
489.916565	1424.476074	36098.863281	15655.583008	41.042133
490.269653	1463.159912	33670.882813	14699.864258	41.097919
490.622772	1531.425537	32198.619141	14358.536133	41.826817
490.975769	1501.843750	31581.953125	14133.259766	41.992588
491.328735	1449.506714	32553.601563	14262.964844	41.195404
491.681732	1526.874512	34171.496094	14991.130859	41.244946
492.034607	1520.047852	36492.527344	15914.992188	41.160774
492.387482	1429.027100	37555.195313	16306.381836	41.181656
492.740326	1442.680176	37293.511719	16413.332031	41.758171
493.093079	1385.792114	36121.617188	15523.602539	40.700951
493.445862	1520.047852	33290.871094	14590.639648	41.140236
493.798523	1490.466064	30981.214844	13398.266602	40.378090
494.151215	1390.343262	28876.359375	12601.833984	40.789799
494.503815	1426.751587	26425.623047	11680.248047	41.015835
494.856384	1438.129150	25249.179688	11054.480469	40.386086
495.208923	1458.608887	24202.439453	10597.100586	40.180092
495.561432	1497.292725	22978.208984	10287.629883	40.921612
495.913879	1433.578125	22445.736328	9841.627930	40.015163
496.266296	1442.680176	22404.777344	9855.280273	40.132431
496.618683	1526.874512	22306.929688	9736.953125	39.509415
496.970978	1554.180664	22630.054688	10087.383789	40.488014
497.323273	1504.119263	23310.435547	10101.037109	39.423981
497.675507	1488.190552	23155.699219	10041.873047	39.477001
498.027710	1442.680176	23440.140625	10267.149414	40.115852
498.379852	1458.608887	23383.251953	10053.250977	39.200832
498.731995	1479.088501	23025.994141	9882.586914	39.000950
499.084076	1431.302612	22671.013672	10137.445313	40.989929
499.436096	1497.292725	22668.738281	9700.544922	38.746773
499.788086	1458.608887	21906.439453	9272.747070	38.215000
500.140106	1442.680176	21464.988281	9290.951172	39.197632
500.491943	1492.741699	21180.546875	9136.215820	38.823395
500.843842	1429.027100	21100.904297	9011.062500	38.542511
501.195679	1454.057739	20172.492188	8810.816406	39.302216
501.547455	1499.568237	19719.664063	8726.622070	39.665291
501.899231	1501.843750	20072.369141	8553.682617	37.973286
502.250885	1492.741699	19865.296875	8499.070313	38.134754
502.602600	1460.884399	19660.500000	8342.059570	37.809456
502.954193	1479.088501	19908.531250	8289.722656	36.955181
503.305786	1474.537476	19683.255859	8282.895508	37.390648
503.657379	1438.129150	19758.347656	8332.957031	37.635075
504.008820	1454.057739	19492.111328	8321.579102	38.072411
504.360291	1526.874512	19944.939453	8257.865234	36.545593
504.711700	1467.710938	19610.437500	8200.976563	37.112755
505.063080	1474.537476	19976.796875	8246.487305	36.600662
505.414368	1469.986450	20204.349609	8392.121094	36.948868
505.765656	1474.537476	19951.765625	8160.017578	36.182266
506.116943	1429.027100	19574.029297	7989.353516	36.155003
506.468109	1469.986450	19667.326172	8048.517090	36.151058
506.819305	1410.822876	19649.123047	7902.883789	35.595757
507.170410	1463.159912	19717.388672	8012.108887	35.876339
507.521484	1538.252075	19437.498047	7814.138672	35.062298
507.872559	1458.608887	19587.683594	7550.178223	33.601105
508.223480	1422.200562	19749.244141	7745.873047	34.504597
508.574493	1531.425537	20163.390625	7977.976074	34.599415
508.925385	1479.088501	20338.605469	7991.628906	34.531853
509.276245	1481.364014	20561.605469	7809.587402	33.166370
509.627045	1549.629639	20486.513672	7927.914551	33.681808
509.977814	1449.506714	21260.191406	7971.149414	32.919823
510.328613	1449.506714	21012.158203	8082.649902	33.907177
510.679260	1504.119263	21173.720703	7989.353516	32.970848
511.029999	1538.252075	21594.693359	8012.108887	32.278194
511.380585	1476.812988	21742.601563	7993.904785	32.158096
511.731140	1483.639526	21635.652344	8039.415039	32.531616
512.081726	1469.986450	22052.072266	8009.833008	31.774460
512.432129	1504.119263	22209.083984	8137.262207	32.036484
512.782654	1463.159912	22313.757813	8235.109375	32.478443
513.133057	1492.741699	22630.054688	7991.628906	30.746042
513.483398	1422.200562	22352.441406	7900.608398	30.952381
513.833801	1449.506714	22484.421875	7825.516113	30.311550
514.183960	1415.373901	22268.246094	7773.179199	30.488869
514.534302	1488.190552	22225.011719	7745.873047	30.176674
514.884460	1554.180664	22038.419922	7795.934082	30.471006
515.234619	1469.986450	21606.070313	7736.770508	31.122160
515.584717	1435.853638	21455.884766	7545.626953	30.518301
515.934753	1422.200562	21826.794922	7566.106445	30.110405
516.284851	1454.057739	21535.529297	7563.831055	30.424931
516.634766	1465.435425	22225.011719	7682.158203	29.946289
516.984741	1417.649414	22434.359375	7456.881836	28.735384
517.334595	1460.884399	22709.697266	7818.689453	29.920755
517.684448	1447.231201	23583.498047	7820.964844	28.793171
518.034363	1522.323364	24186.509766	8157.742188	29.277111
518.384094	1513.221313	24951.085938	8423.977539	29.485434
518.733826	1535.976563	26154.835938	8537.753906	28.440706
519.083496	1483.639526	27294.871094	8678.835938	27.876221
519.433167	1476.812988	27460.984375	8888.184570	28.522638
519.782776	1510.945801	27440.505859	8854.051758	28.319439
520.132324	1526.874512	27087.798828	8813.091797	28.505297
520.481873	1440.404663	26664.552734	8585.540039	28.326567
520.831299	1483.639526	26066.089844	8417.151367	28.205128
521.180786	1508.670288	25483.556641	8205.528320	27.932802
521.530151	1479.088501	24967.013672	7984.802734	27.698122
521.879517	1413.098389	24648.441406	7782.281250	27.411613
522.228882	1469.986450	24864.615234	7966.598145	27.769672
522.578064	1490.466064	24379.929688	7884.679688	27.935184
522.927307	1492.741699	24420.888672	7714.015625	27.133785
523.276489	1490.466064	24423.164063	7704.913574	27.098633
523.625610	1435.853638	24668.921875	7741.321777	27.140059
523.974792	1431.302612	25144.503906	8057.619141	27.943577
524.323792	1492.741699	25249.179688	8214.629883	28.295017
524.672852	1497.292725	25836.263672	8380.743164	28.281599
525.021790	1474.537476	26179.867188	8232.833984	27.355621
525.370728	1524.598877	27501.945313	8692.489258	27.592852
525.719604	1456.333252	28635.154297	8995.133789	27.737778
526.068420	1469.986450	30207.539063	9691.443359	28.608759
526.417297	1506.394775	31577.402344	10053.250977	28.422249
526.765991	1479.088501	32332.875000	10091.934570	27.915035
527.114746	1472.261963	33479.738281	10412.783203	27.932604
527.463379	1469.986450	34442.281250	10870.163086	28.509321
527.812012	1504.119263	35973.707031	11464.074219	28.894907
528.160706	1440.404663	38692.957031	12160.382813	28.776495
528.509155	1481.364014	42053.898438	13514.318359	29.657881
528.857727	1483.639526	47101.003906	15018.437500	29.670277
529.206177	1419.924927	51372.156250	16229.014648	29.646503
529.554565	1495.017212	52928.613281	16923.048828	29.996017
529.902893	1529.150024	51904.628906	16686.394531	30.088535
530.251221	1520.047852	49972.710938	15946.849609	29.775043
530.599548	1469.986450	47023.636719	14654.353516	28.942505
530.947876	1504.119263	43152.976563	13939.840820	29.858496
531.296021	1435.853638	40135.636719	12763.396484	29.270302
531.644165	1476.812988	37750.890625	12351.527344	29.979300
531.992249	1479.088501	35552.738281	11791.749023	30.265793
532.340454	1456.333252	34303.476563	11234.246094	29.767923
532.688354	1447.231201	33980.351563	11177.358398	29.908373
533.036438	1499.568237	33996.281250	11511.859375	30.810165
533.384338	1488.190552	35887.238281	11766.717773	29.880268
533.732239	1449.506714	37450.519531	12681.477539	31.199041
534.080139	1422.200562	39068.417969	12913.580078	30.524658
534.427917	1415.373901	38888.652344	13093.346680	31.163467
534.775757	1469.986450	37318.542969	12722.436523	31.388853
535.123474	1449.506714	35616.453125	12005.647461	30.895769
535.471191	1481.364014	33898.433594	11627.911133	31.300013
535.818848	1529.150024	32742.468750	11147.776367	30.815775
536.166382	1408.547363	31606.984375	10829.203125	31.195841
536.513977	1460.884399	31383.982422	10892.917969	31.520912
536.861511	1506.394775	31481.830078	11008.969727	31.701208
537.208984	1444.955688	31786.750000	10660.815430	30.373482
537.556396	1463.159912	31525.064453	10565.243164	30.277800
537.903809	1424.476074	31397.636719	10738.182617	31.073490
538.251160	1476.812988	30257.599609	10515.181641	31.404177
538.598389	1447.231201	29251.820313	10098.761719	31.115475
538.945740	1469.986450	28198.253906	9909.893555	31.576710
539.292969	1460.884399	27706.742188	9764.259766	31.636898
539.640137	1460.884399	27654.404297	9536.708008	30.831381
539.987244	1535.976563	27272.117188	9557.187500	31.167109
540.334351	1476.812988	28020.763672	9682.340820	30.912983
540.681458	1490.466064	28603.296875	9884.862305	30.960976
541.028442	1422.200562	30926.603516	10353.620117	30.271482
541.375366	1506.394775	33918.914063	11564.196289	31.030607
541.722290	1469.986450	36415.160156	12424.343750	31.347271
542.069153	1474.537476	38522.292969	13168.438477	31.564400
542.416016	1495.017212	39883.054688	13168.438477	30.409006
542.762756	1513.221313	39232.253906	13120.653320	30.773409
543.109558	1504.119263	37896.523438	12517.639648	30.263241
543.456299	1449.506714	37120.570313	12164.934570	30.039553
543.802917	1506.394775	35029.367188	11559.645508	29.989140
544.149536	1413.098389	34121.433594	11109.092773	29.643801
544.496094	1463.159912	32112.150391	10603.926758	29.824038
544.842651	1447.231201	30603.478516	10087.383789	29.633965
545.189148	1456.333252	28946.900391	9384.248047	28.838675
545.535583	1465.435425	27909.261719	9099.807617	28.870150
545.882019	1513.221313	26926.238281	8717.520508	28.348854
546.228333	1463.159912	26136.632813	8651.530273	29.134003
546.574707	1433.578125	26204.898438	8553.682617	28.743340
546.920898	1447.231201	26318.673828	8410.325195	27.996340
547.267212	1495.017212	26132.080078	8574.162109	28.733723
547.613342	1444.955688	26241.306641	8296.548828	27.631456
547.959473	1444.955688	25927.283203	8194.150391	27.567619
548.305664	1454.057739	25663.324219	8212.354492	27.916159
548.651611	1517.772339	24500.533203	7750.423828	27.118809
548.997742	1526.874512	23385.527344	7531.973633	27.472412
549.343689	1481.364014	22873.535156	6981.297852	25.710030
549.689575	1399.445313	21890.509766	6758.296875	26.152138
550.035522	1506.394775	21287.498047	6660.449219	26.055447
550.381287	1485.915039	20638.974609	6419.244141	25.757397
550.727173	1451.782227	20158.837891	6421.519531	26.566113
551.072876	1447.231201	19617.265625	6162.110352	25.948650
551.418640	1601.966675	19628.642578	6141.630859	25.183035
551.764282	1501.843750	19362.406250	6121.150879	25.863167
552.109863	1467.710938	19100.720703	5977.792969	25.577494
552.455505	1467.710938	19289.589844	5916.354004	24.961695
552.801025	1438.129150	19264.558594	5989.170898	25.529745
553.146545	1545.078613	19662.775391	5930.007324	24.202461
553.491943	1442.680176	20054.164063	6109.773438	25.076416
553.837341	1506.394775	19872.123047	6023.303711	24.594229
554.182800	1413.098389	19949.490234	6055.160645	25.042967
554.528015	1435.853638	19628.642578	5743.414551	23.677299
554.873352	1529.150024	19394.263672	5882.221191	24.366323
555.218628	1529.150024	18920.955078	5693.353027	23.943480
555.563721	1526.874512	18836.761719	5697.904297	24.096228
555.908875	1479.088501	18233.748047	5613.709961	24.677443
556.254028	1549.629639	18083.564453	5452.147949	23.603081
556.599121	1488.190552	17769.541016	5374.780273	23.871422
556.944031	1438.129150	17876.492188	5372.504395	23.934105
557.289063	1556.456177	17760.439453	5267.830566	22.904087
557.633972	1458.608887	17594.326172	5240.524414	23.438162
557.978882	1413.098389	17430.490234	5267.830566	24.065918
558.323792	1449.506714	17369.050781	5208.666992	23.613491
558.668518	1522.323364	17282.580078	5233.697754	23.548946
559.013306	1495.017212	17095.988281	5147.228027	23.410152
559.358032	1476.812988	17191.560547	5204.116211	23.718504
559.702637	1501.843750	16989.039063	5217.769043	23.993532
560.047363	1522.323364	16743.281250	5124.472656	23.665720
560.391846	1469.986450	16923.048828	5295.136719	24.753347
560.736450	1476.812988	17002.691406	5263.279785	24.388100
561.080933	1435.853638	17009.517578	5172.258789	23.991819
561.425354	1481.364014	17148.324219	5206.391602	23.776327
561.769775	1479.088501	17121.017578	5336.096191	24.658134
562.114136	1465.435425	17312.162109	5345.198242	24.483055
562.458496	1433.578125	17221.140625	5349.749512	24.805422
562.802673	1476.812988	17159.703125	5349.749512	24.695297
563.146912	1440.404663	17503.306641	5395.259766	24.621048
563.491150	1476.812988	17105.089844	5301.963379	24.475828
563.835266	1490.466064	16984.486328	5342.922852	24.864151
564.179443	1485.915039	16959.457031	5568.199219	26.382351
564.523438	1510.945801	17157.427734	5422.565918	24.999996
564.867493	1540.527588	17225.693359	5399.811035	24.604671
565.211426	1506.394775	17166.529297	5456.698730	25.225224
565.555359	1444.955688	17648.939453	5556.821777	25.375650
565.899231	1467.710938	17562.468750	5859.465820	27.286865
566.243042	1449.506714	17883.318359	5870.843750	26.903902
566.586914	1401.720825	18861.791016	5975.517578	26.195753
566.930603	1456.333252	19014.251953	6184.865723	26.931053
567.274292	1426.751587	19143.957031	6139.354980	26.599024
567.617981	1456.333252	19330.548828	6357.805176	27.422026
567.961609	1413.098389	18973.292969	6253.131348	27.562525
568.305237	1442.680176	18661.546875	6355.529785	28.531782
568.648682	1458.608887	18454.474609	6366.907227	28.879368
568.992188	1415.373901	18406.687500	6369.182617	29.154945
569.335632	1495.017212	17871.939453	6271.335449	29.164934
569.679016	1476.812988	17760.439453	6430.621582	30.422022
570.022461	1497.292725	17837.806641	6350.978516	29.703384
570.365662	1463.159912	17853.736328	6503.438477	30.751074
570.708984	1497.292725	17598.876953	6521.642578	31.204071
571.052185	1406.271851	17790.021484	6555.775391	31.430553
571.395386	1476.812988	17744.511719	6619.490234	31.612812
571.738525	1442.680176	18276.982422	6935.787598	32.630444
572.081604	1567.833862	18502.259766	7258.911133	33.606556
572.424683	1415.373901	18825.382813	7272.564453	33.642662
572.767578	1415.373901	19184.916016	7388.616211	33.615059
573.110596	1485.915039	19403.365234	7531.973633	33.743969
573.453552	1463.159912	18973.292969	7575.208984	34.905781
573.796387	1495.017212	19271.384766	7602.515137	34.357403
574.139282	1495.017212	18816.281250	7816.414063	36.495010
574.481995	1392.618774	18600.107422	7657.127441	36.405712
574.824768	1465.435425	18327.044922	7855.097656	37.894733
575.167480	1433.578125	18823.107422	7818.689453	36.718140
575.510132	1451.782227	18311.115234	8125.884766	39.586994
575.852722	1490.466064	18661.546875	8125.884766	38.642990
576.195251	1454.057739	18113.146484	8212.354492	40.568230
576.537842	1488.190552	18463.576172	8073.547852	38.793568
576.880188	1524.598877	17837.806641	8301.099609	41.539967
577.222717	1538.252075	17539.714844	8162.292969	41.396473
577.565063	1531.425537	17123.294922	8251.038086	43.096901
577.907410	1497.292725	17057.304688	8182.772949	42.965782
578.249756	1522.323364	16572.617188	8114.507324	43.801033
578.591919	1495.017212	16411.056641	8089.476563	44.210526
578.934204	1533.701050	15969.605469	8050.792480	45.145016
579.276306	1485.915039	15628.277344	7855.097656	45.036201
579.618469	1565.558350	15332.458984	7832.342773	45.520660
579.960571	1438.129150	15491.746094	7871.026367	45.773964
580.302551	1458.608887	14904.661133	7980.251465	48.502285
580.644531	1499.568237	14895.559570	8062.170410	48.989300
580.986511	1419.924927	14567.883789	8064.445801	50.536522
581.328369	1394.894287	14497.342773	8160.017578	51.632511
581.670227	1490.466064	14570.160156	8066.721191	50.278355
582.012024	1492.741699	14365.363281	8123.609375	51.511402
582.353821	1524.598877	14149.188477	8378.467773	54.289837
582.695496	1495.017212	14121.881836	8296.548828	53.865566
583.037231	1488.190552	14429.077148	8323.855469	52.822231
583.378845	1469.986450	14438.179688	8355.711914	53.097031
583.720398	1501.843750	14014.932617	8194.150391	53.482452
584.062012	1588.313477	13780.553711	8528.652344	56.924229
584.403442	1483.639526	13962.595703	8701.591797	57.840992
584.744934	1433.578125	13960.320313	8651.530273	57.620346
585.086365	1465.435425	13989.902344	8690.213867	57.685318
585.427734	1488.190552	13983.075195	8847.224609	58.896374
585.768982	1451.782227	13805.584961	8751.653320	59.090073
586.110291	1472.261963	13559.828125	8933.694336	61.728161
586.451599	1547.354126	13562.103516	8865.428711	60.909092
586.792725	1545.078613	13609.889648	9177.175781	63.259155
587.133850	1476.812988	13482.460938	9008.787109	62.736919
587.474915	1449.506714	13785.105469	9149.869141	62.423904
587.815979	1433.578125	13728.216797	9249.992188	63.575794
588.157043	1492.741699	13694.083984	9249.992188	63.577026
588.497925	1465.435425	14001.279297	9589.044922	64.803055
588.838867	1483.639526	13482.460938	9516.227539	66.944809
589.179749	1517.772339	13721.390625	9636.831055	66.529930
589.520569	1463.159912	13996.728516	9807.495117	66.575890
589.861450	1451.782227	14037.687500	9955.403320	67.564636
590.202087	1472.261963	13999.003906	10176.128906	69.482292
590.542847	1524.598877	14160.566406	10367.272461	69.980186
590.883484	1479.088501	14194.699219	10326.313477	69.577667
591.224121	1472.261963	14356.260742	10390.028320	69.215828
591.564636	1547.354126	14251.586914	10653.988281	71.681892
591.905151	1517.772339	14217.454102	10553.865234	71.152122
592.245667	1458.608887	13989.902344	10779.141602	74.378067
592.585999	1531.425537	13823.789063	10667.641602	74.324326
592.926453	1415.373901	13926.187500	10392.303711	71.753365
593.266724	1497.292725	13871.575195	10547.039063	73.133507
593.607056	1524.598877	13810.135742	10706.325195	74.736061
593.947388	1465.435425	13823.789063	10699.499023	74.719208
594.287476	1403.996338	13755.523438	10990.765625	77.616066
594.627686	1431.302612	14062.718750	10986.214844	75.644028
594.967773	1515.496826	14194.699219	11077.235352	75.412773
595.307861	1456.333252	14033.136719	11509.583984	79.934868
595.647888	1467.710938	14360.811523	11459.522461	77.497353
595.987854	1499.568237	14590.639648	11666.594727	77.663826
596.327820	1401.720825	14499.618164	11928.280273	80.368317
596.667725	1474.537476	14931.967773	12126.250000	79.151161
597.007568	1474.537476	15114.008789	12715.610352	82.415756
597.347351	1488.190552	16033.319336	13066.040039	79.599495
597.687073	1454.057739	16299.555664	13653.125000	82.173515
598.026794	1488.190552	16297.280273	13509.766602	81.177010
598.366455	1476.812988	16083.380859	13484.736328	82.209068
598.706116	1442.680176	15678.337891	13348.205078	83.631714
599.045654	1435.853638	15271.020508	13157.061523	84.720398
599.385193	1460.884399	14788.609375	12638.242188	83.865456
599.724731	1467.710938	14695.313477	12137.627930	80.664024
600.064087	1417.649414	14026.310547	12169.485352	85.273415
600.403564	1513.221313	13694.083984	11764.442383	84.158417
600.742920	1497.292725	13377.787109	11696.176758	85.845619
601.082153	1456.333252	13225.327148	11716.656250	87.180969
601.421387	1413.098389	13186.642578	11539.166016	86.006958
601.760620	1426.751587	13066.040039	11493.655273	86.490715
602.099854	1483.639526	13441.500977	11627.911133	84.833496
602.438843	1447.231201	13125.204102	11393.532227	85.171471
602.778015	1504.119263	13348.205078	11794.024414	86.878006
603.117065	1497.292725	13673.604492	12189.964844	87.815361
603.456055	1435.853638	13814.686523	12397.037109	88.547798
603.794983	1454.057739	14242.484375	12503.986328	86.405693
604.133850	1506.394775	14645.251953	13193.469727	88.950470
604.472778	1488.190552	14891.007813	13639.471680	90.662140
604.811584	1454.057739	15478.092773	13735.043945	87.570992
605.150330	1469.986450	16115.238281	14517.822266	89.092598
605.489075	1540.527588	16504.351563	14526.924805	86.785286
605.827698	1476.812988	16269.973633	14845.498047	90.370720
606.166382	1415.373901	16358.718750	14440.455078	87.163094
606.504883	1465.435425	15855.829102	14456.383789	90.275139
606.843445	1463.159912	15587.317383	14121.881836	89.624619
607.181946	1429.027100	15036.641602	13741.870117	90.484947
607.520386	1465.435425	14763.579102	13343.654297	89.322380
607.858826	1472.261963	14069.544922	12786.151367	89.812141
608.197083	1460.884399	13885.227539	12745.192383	90.824181
608.535461	1435.853638	13898.880859	12610.936523	89.665878
608.873718	1440.404663	13568.930664	12435.720703	90.656654
609.211914	1488.190552	13491.562500	12467.578125	91.469193
609.550171	1504.119263	14044.514648	12788.426758	89.983665
609.888245	1469.986450	14385.842773	13213.949219	90.926704
610.226318	1488.190552	14738.547852	13496.114258	90.623398
610.564392	1454.057739	14697.588867	13557.552734	91.391754
610.902344	1549.629639	14836.395508	13521.144531	90.101044
611.240295	1506.394775	14326.678711	13375.511719	92.580765
611.578247	1479.088501	14272.066406	13334.551758	92.671646
611.916138	1570.109375	14226.555664	13061.489258	90.794678
612.253845	1463.159912	13716.839844	12711.059570	91.792015
612.591675	1517.772339	13416.470703	12460.751953	91.967873
612.929382	1547.354126	13184.367188	12226.373047	91.767700
613.267090	1479.088501	12959.090820	12062.536133	92.190292
613.604736	1524.598877	12749.743164	11643.839844	90.147980
613.942261	1463.159912	12417.516602	11709.830078	93.539680
614.279785	1426.751587	12481.231445	11491.379883	91.045700
614.617310	1365.312500	12103.495117	11464.074219	94.045349
614.954712	1506.394775	12010.199219	11407.185547	94.259094
615.292175	1492.741699	11869.116211	10952.082031	91.162277
615.629517	1440.404663	11898.698242	10833.754883	89.817238
615.966797	1515.496826	11682.523438	11111.368164	94.382278
616.304138	1460.884399	11732.584961	11074.959961	93.597702
616.641296	1526.874512	11928.280273	10958.908203	90.680367
616.978516	1561.007324	11650.666016	10963.458984	93.188995
617.315552	1524.598877	11634.738281	11097.714844	94.688271
617.652771	1456.333252	11860.014648	11052.204102	92.235336
617.989685	1551.905151	11507.308594	11036.276367	95.268578
618.326721	1520.047852	11782.646484	11106.817383	93.414642
618.663696	1526.874512	11823.606445	11247.899414	94.408836
619.000549	1463.159912	12078.464844	11136.398438	91.125397
619.337463	1490.466064	11996.545898	11293.410156	93.307343
619.674194	1467.710938	11750.789063	10970.286133	92.409828
620.010986	1408.547363	11712.105469	11177.358398	94.810066
620.347778	1540.527588	11543.716797	11031.724609	94.881714
620.684387	1485.915039	11518.686523	10895.193359	93.785431
621.020996	1451.782227	11300.236328	10883.816406	95.771721
621.357605	1495.017212	11643.839844	10915.672852	92.825111
621.694214	1444.955688	11270.654297	10826.927734	95.484016
622.030579	1526.874512	11327.542969	10815.550781	94.775948
622.367065	1463.159912	11363.951172	10724.529297	93.541710
622.703430	1481.364014	11238.796875	10911.122070	96.641792
623.039795	1472.261963	11318.440430	10537.936523	92.073029
623.376160	1438.129150	11266.103516	10713.152344	94.373703
623.712402	1479.088501	11154.602539	10558.416992	93.838203
624.048645	1465.435425	11268.378906	10578.896484	92.966576
624.384766	1458.608887	11177.358398	10733.631836	95.434326
624.720886	1451.782227	11206.940430	10622.130859	94.005127
625.057007	1454.057739	11052.204102	10594.825195	95.234718
625.392944	1451.782227	11147.776367	10701.774414	95.400139
625.729004	1431.302612	11079.510742	10617.580078	95.212265
626.064941	1444.955688	11359.399414	10717.703125	93.527664
626.400818	1454.057739	11825.881836	10847.407227	90.566032
626.736633	1472.261963	11723.483398	11202.388672	94.916756
627.072449	1540.527588	12187.689453	11425.389648	92.840347
627.408264	1472.261963	12071.637695	11402.634766	93.688278
627.743896	1465.435425	12321.945313	11536.890625	92.768814
628.079590	1435.853638	12337.874023	11728.034180	94.406174
628.415161	1456.333252	12242.301758	11791.749023	95.822792
628.750793	1454.057739	12053.433594	11486.829102	94.654358
629.086365	1472.261963	12073.913086	11582.401367	95.363823
629.421753	1460.884399	11814.503906	11373.052734	95.736259
629.757263	1388.067749	11632.461914	11297.960938	96.734787
630.092651	1497.292725	11370.777344	10820.101563	94.422684
630.427917	1520.047852	11070.409180	10763.213867	96.783417
630.763184	1413.098389	11034.000000	10490.151367	94.347214
631.098511	1479.088501	11193.287109	10622.130859	94.120399
631.433716	1520.047852	10824.652344	10565.243164	97.212036
631.768799	1419.924927	10694.948242	10440.089844	97.252205
632.103943	1524.598877	10658.539063	10353.620117	96.661690
632.438965	1451.782227	10585.722656	10289.905273	96.761337
632.773987	1488.190552	10644.886719	10112.414063	94.184883
633.109070	1433.578125	10396.854492	10060.077148	96.242699
633.443848	1378.965576	10490.151367	9964.505859	94.230766
633.778870	1399.445313	10501.528320	10044.148438	94.974998
634.113708	1481.364014	10599.375977	9850.729492	91.789368
634.448425	1481.364014	10456.018555	9934.923828	94.193710
634.783264	1447.231201	10483.324219	10037.322266	95.064217
635.117859	1467.710938	10460.569336	10255.772461	97.722672
635.452576	1413.098389	10364.997070	10019.118164	96.136253
635.787170	1383.516602	10278.527344	9839.351563	95.062675
636.121704	1449.506714	10176.128906	9914.444336	97.001305
636.456177	1410.822876	10456.018555	9707.372070	91.723267
636.790588	1467.710938	10101.037109	9507.125977	93.120712
637.125122	1458.608887	9957.678711	9359.216797	92.958496
637.459412	1454.057739	9800.667969	9625.453125	97.900764
637.793762	1433.578125	9714.198242	9331.911133	95.383354
638.128052	1504.119263	9607.249023	9322.808594	96.489746
638.462280	1469.986450	9791.566406	9136.215820	92.124687
638.796509	1488.190552	9554.912109	9231.788086	95.994354
639.130615	1490.466064	9739.229492	8988.307617	90.896553
639.464722	1447.231201	9236.338867	9047.470703	97.575226
639.798767	1490.466064	9238.614258	9017.888672	97.151245
640.132751	1513.221313	9325.083984	9008.787109	95.951073
640.466736	1435.853638	9222.685547	8881.357422	95.616600
640.800598	1474.537476	9108.910156	9029.266602	98.956779
641.134521	1520.047852	8869.980469	8976.929688	101.455101
641.468262	1465.435425	8965.551758	8767.582031	97.360443
641.802063	1399.445313	8833.571289	8606.019531	96.939095
642.135803	1531.425537	8881.357422	8512.723633	94.984528
642.469421	1433.578125	8619.672852	8471.763672	97.941734
642.803101	1454.057739	8831.295898	8487.692383	95.342384
643.136658	1497.292725	8790.336914	8483.141602	95.787834
643.470215	1538.252075	8692.489258	8314.752930	94.720100
643.803711	1413.098389	8788.061523	8467.212891	95.649490
644.137085	1447.231201	8635.601563	8442.182617	97.309280
644.470581	1535.976563	8738.000000	8396.671875	95.260666
644.803833	1463.159912	8565.060547	8187.323730	94.681190
645.137207	1501.843750	8672.009766	8401.222656	96.223419
645.470459	1431.302612	8596.917969	8405.773438	97.332474
645.803589	1469.986450	8408.049805	8421.702148	100.196777
646.136780	1467.710938	8553.682617	8230.558594	95.439949
646.469849	1417.649414	8583.264648	8257.865234	95.458878
646.802979	1465.435425	8603.744141	8141.813477	93.528847
647.135986	1415.373901	8706.142578	8296.548828	94.382019
647.468994	1410.822876	8665.183594	8307.926758	95.075279
647.801941	1501.843750	8665.183594	8239.661133	94.059723
648.134766	1476.812988	8699.316406	8458.110352	96.660355
648.467651	1472.261963	8869.980469	8369.365234	93.232841
648.800354	1501.843750	8631.050781	8530.927734	98.595596
649.133179	1481.364014	8494.519531	8421.702148	98.961700
649.465881	1454.057739	8555.958008	8383.018555	97.564888
649.798462	1460.884399	8788.061523	8553.682617	96.801239
650.131104	1426.751587	8487.692383	8383.018555	98.517563
650.463623	1467.710938	8672.009766	8469.488281	97.188881
650.796143	1474.537476	8612.846680	8417.151367	97.258522
651.128662	1485.915039	8699.316406	8412.600586	96.025230
651.461060	1456.333252	8619.672852	8383.018555	96.696312
651.793396	1535.976563	8756.204102	8576.437500	97.510239
652.125732	1476.812988	8576.437500	8419.426758	97.788467
652.458008	1495.017212	8646.979492	8628.774414	99.745453
652.790222	1440.404663	8751.653320	8455.834961	95.953926
653.122437	1444.955688	8681.112305	8335.232422	95.220116
653.454529	1401.720825	8612.846680	8394.396484	96.970650
653.786621	1415.373901	8621.948242	8276.069336	95.200508
654.118713	1513.221313	8512.723633	8285.170898	96.749016
654.450623	1417.649414	8467.212891	8296.548828	97.579086
654.782654	1415.373901	8549.131836	8175.946289	94.768738
655.114502	1447.231201	8451.284180	8084.925293	94.769341
655.446350	1458.608887	8430.804688	7964.322754	93.309395
655.778198	1524.598877	8383.018555	8046.241699	95.089577
656.109863	1542.803101	8084.925293	8021.210938	99.026093
656.441650	1451.782227	8248.762695	8098.578613	97.790428
656.773254	1417.649414	8253.313477	8030.312988	96.737694
657.104919	1497.292725	8262.416016	8016.659668	96.367310
657.436462	1563.282837	8216.905273	8018.935547	97.024635
657.767944	1529.150024	8207.803711	8087.201172	98.194206
658.099548	1469.986450	8285.170898	8116.782715	97.529221
658.430908	1424.476074	8280.620117	8137.262207	97.909058
658.762268	1517.772339	8458.110352	8148.640137	95.540993
659.093628	1485.915039	8551.407227	8474.039063	98.904984
659.424927	1485.915039	8954.174805	8815.367188	98.141365
659.756226	1435.853638	9049.746094	9017.888672	99.581589
660.087341	1392.618774	9472.993164	9054.296875	94.818352
660.418518	1463.159912	9527.605469	9454.789063	99.097069
660.749573	1504.119263	9598.146484	9397.901367	97.526016
661.080627	1524.598877	9559.462891	9243.165039	96.063431
661.411621	1444.955688	9238.614258	9072.500977	97.868607
661.742554	1515.496826	9320.533203	9124.838867	97.492714
662.073547	1460.884399	9079.328125	8888.184570	97.491043
662.404297	1449.506714	8910.939453	8724.346680	97.499237
662.735229	1504.119263	8778.958984	8585.540039	97.341263
663.065979	1481.364014	8626.499023	8449.008789	97.515930
663.396667	1488.190552	8449.008789	8223.732422	96.763649
663.727417	1449.506714	8043.965820	7934.741211	98.343689
664.057922	1499.568237	8066.721191	7843.720215	96.604294
664.388611	1451.782227	7973.424805	7850.546875	98.115845
664.719116	1501.843750	7982.526855	7591.137207	93.960670
665.049622	1497.292725	7927.914551	7572.933105	94.479828
665.380005	1529.150024	7702.637695	7652.576660	99.189095
665.710388	1542.803101	7757.250488	7500.116699	95.862320
666.040771	1551.905151	7522.871582	7402.269043	97.980186
666.371033	1429.027100	7595.688477	7354.483398	96.088562
666.701294	1520.047852	7657.127441	7347.656738	94.957359
667.031555	1444.955688	7472.810547	7418.197754	99.093994
667.361633	1490.466064	7670.780762	7479.636719	96.907219
667.691772	1463.159912	7529.698242	7343.105469	96.924232
668.021790	1504.119263	7484.187988	7386.340332	98.363770
668.351807	1495.017212	7632.096680	7356.758789	95.513535
668.681763	1522.323364	7513.769531	7331.728027	96.961647
669.011719	1465.435425	7497.840820	7381.789551	98.076202
669.341614	1449.506714	7734.495117	7227.054199	91.926147
669.671387	1490.466064	7673.056152	7352.207520	94.810448
670.001221	1476.812988	7600.239258	7559.280273	99.331108
670.330933	1501.843750	7643.474609	7568.382324	98.777321
670.660583	1401.720825	7506.943359	7486.463379	99.664551
670.990173	1463.159912	7661.678711	7340.830078	94.823784
671.319763	1495.017212	7561.555664	7249.809082	94.861214
671.649292	1501.843750	7454.605957	7336.279297	98.012238
671.978821	1506.394775	7393.166992	7263.462402	97.796669
672.308289	1454.057739	7363.585449	7233.880859	97.805161
672.637695	1417.649414	7525.147461	7051.838867	92.250366
672.966980	1390.343262	7336.279297	7111.002441	96.211250
673.296326	1501.843750	7281.666504	7183.819336	98.307091
673.625610	1483.639526	7090.522949	7051.838867	99.310059
673.954773	1465.435425	7181.543457	7149.686523	99.442680
674.283936	1458.608887	7145.135254	7101.900391	99.239693
674.613037	1449.506714	7252.084961	6869.797363	93.411766
674.942078	1447.231201	7008.604004	6897.103516	97.995079
675.271118	1460.884399	7033.634766	6942.613770	98.366676
675.600098	1522.323364	7013.155273	6992.675293	99.627014
675.928955	1497.292725	6922.134277	6874.348145	99.119125
676.257813	1499.568237	6903.930176	6831.113281	98.652626
676.586670	1469.986450	6953.991699	6874.348145	98.547714
676.915466	1488.190552	7070.042969	6728.714844	93.885040
677.244141	1426.751587	7111.002441	6892.552734	96.156929
677.572876	1472.261963	7010.879395	6765.123535	95.562866
677.901489	1458.608887	6981.297852	6765.123535	96.085709
678.230042	1460.884399	7031.359375	6847.041992	96.691170
678.558594	1435.853638	6924.409668	6751.470215	96.849091
678.887085	1499.568237	6974.471191	6801.531738	96.841232
679.215515	1463.159912	7031.359375	6926.685547	98.120148
679.543945	1479.088501	7076.869629	7151.961914	101.341469
679.872253	1506.394775	7204.298828	6997.226563	96.365814
680.200562	1479.088501	7258.911133	7063.216797	96.614182
680.528809	1440.404663	7299.870605	7058.665527	95.883499
680.856995	1501.843750	7493.290039	7365.860840	97.873146
681.185120	1454.057739	7584.311035	7438.677734	97.624352
681.513306	1476.812988	7627.545898	7481.912598	97.632263
681.841309	1501.843750	7595.688477	7475.085938	98.020912
682.169373	1510.945801	7568.382324	7336.279297	96.168297
682.497314	1495.017212	7663.954102	7543.351563	98.045006
682.825134	1510.945801	7361.309570	7247.533691	98.055237
683.153076	1517.772339	7520.596191	7447.779785	98.786964
683.480896	1531.425537	7479.636719	7231.604980	95.830154
683.808655	1369.863525	7293.043945	7126.931152	97.195541
684.136414	1449.506714	7199.748047	6963.093750	95.884445
684.464050	1429.027100	7240.707031	6979.022461	95.497261
684.791626	1485.915039	7195.196777	6947.165039	95.655640
685.119263	1456.333252	6915.307617	6847.041992	98.749481
685.446838	1467.710938	6790.154297	6667.275879	97.691315
685.774292	1447.231201	6803.807129	6535.295898	94.987251
686.101685	1413.098389	6687.755859	6676.377930	99.784294
686.429077	1476.812988	6669.551270	6366.907227	94.171783
686.756348	1474.537476	6671.827148	6544.397949	97.548157
687.083679	1438.129150	6389.662598	6448.826172	101.194862
687.410950	1529.150024	6610.387695	6469.305664	97.223473
687.738159	1435.853638	6660.449219	6364.631836	94.337982
688.065308	1449.506714	6696.857910	6546.673340	97.137894
688.392395	1401.720825	6710.510742	6653.623047	98.928421
688.719421	1474.537476	6847.041992	6553.500000	94.536217
689.046448	1531.425537	6617.214355	6639.969727	100.447418
689.373413	1533.701050	6844.766602	6630.867676	95.972580
689.700317	1531.425537	6708.235352	6619.490234	98.285721
690.027100	1472.261963	6658.173828	6512.540527	97.191742
690.353943	1490.466064	6558.050781	6360.080566	96.093391
690.680725	1465.435425	6514.815918	6350.978516	96.755295
691.007446	1526.874512	6489.785156	6184.865723	93.856033
691.334106	1465.435425	6278.162109	6155.283691	97.446800
691.660645	1444.955688	6223.549316	5975.517578	94.809525
691.987244	1499.568237	6273.610840	5975.517578	93.755959
692.313721	1419.924927	6193.967773	6030.129883	96.568153
692.640259	1549.629639	6148.457031	5854.915039	93.617027
692.966675	1538.252075	6041.507813	6082.467285	100.909554
693.293030	1497.292725	5975.517578	5930.007324	98.983757
693.619324	1522.323364	6018.752441	5779.822754	94.686234
693.945618	1517.772339	5975.517578	5800.302734	96.069427
694.271851	1460.884399	5852.639648	5654.669434	95.492233
694.598083	1515.496826	5718.383789	5738.863281	100.487274
694.924194	1460.884399	5652.393555	5768.445313	102.768738
695.250244	1433.578125	5809.404785	5825.333008	100.364006
695.576294	1467.710938	5645.566895	5775.271973	103.104584
695.902283	1517.772339	5804.853516	5597.781250	95.169853
696.228210	1429.027100	5759.343262	5688.802246	98.370995
696.554138	1488.190552	5904.976563	5577.301270	92.581139
696.879944	1479.088501	5734.312500	5622.812012	97.379677
697.205750	1515.496826	5786.649414	5679.699707	97.496010
697.531433	1463.159912	5934.558105	5825.333008	97.557236
697.857178	1429.027100	6039.232422	5866.292480	96.248772
698.182739	1447.231201	6055.160645	6066.538574	100.246918
698.508423	1449.506714	6278.162109	5989.170898	94.015076
698.833984	1510.945801	6594.459473	6239.478027	93.017006
699.159485	1506.394775	6626.316406	6501.163086	97.555565
699.484924	1451.782227	6897.103516	7045.012207	102.716255
699.810303	1454.057739	7070.042969	7054.114258	99.716370
700.135681	1476.812988	7334.003418	7176.992676	97.319351
700.460999	1481.364014	7236.156250	7099.625000	97.627518
700.786255	1467.710938	7279.391113	7081.420898	96.593582
701.111450	1479.088501	7104.175781	6903.930176	96.440132
701.436646	1460.884399	6767.398926	6687.755859	98.499146
701.761719	1490.466064	6628.592285	6558.050781	98.627106
702.086792	1449.506714	6576.254883	6255.406738	93.741684
702.411865	1549.629639	6244.029297	6164.385742	98.303436
702.736816	1485.915039	6189.416504	6075.640625	97.581039
703.061646	1563.282837	6084.742676	5743.414551	92.450928
703.386536	1538.252075	5829.884277	5736.587891	97.826088
703.711365	1469.986450	5611.434082	5593.229980	99.560440
704.036194	1508.670288	5420.290527	5420.290527	100.000000
704.360901	1417.649414	5449.872559	5377.055664	98.194122
704.685547	1438.129150	5454.423340	5306.514648	96.317284
705.010132	1524.598877	5408.913086	5208.666992	94.844749
705.334717	1508.670288	5213.218262	5197.289551	99.570023
705.659302	1513.221313	5272.381836	5176.810059	97.457626
705.983765	1417.649414	5283.759277	4990.217285	92.407303
706.308228	1510.945801	5208.666992	5110.819824	97.353851
706.632568	1474.537476	5097.166504	5113.095215	100.439697
706.956909	1513.221313	5245.075684	5056.207031	94.939011
707.281189	1510.945801	5210.942871	5044.829590	95.510445
707.605408	1438.129150	5181.360840	5042.554199	96.291794
707.929626	1394.894287	5165.432129	5019.798828	96.137596
708.253784	1474.537476	5283.759277	4992.492676	92.353645
708.577820	1415.373901	5261.003906	5160.881348	97.396461
708.901855	1490.466064	5286.034668	5040.278809	93.525192
709.225830	1454.057739	5338.371582	5097.166504	93.790276
709.549805	1438.129150	5226.871094	4960.635254	92.972977
709.873718	1419.924927	5185.912109	5122.197266	98.308151
710.197510	1444.955688	5233.697754	5097.166504	96.396393
710.521362	1460.884399	5338.371582	5210.942871	96.713623
710.845093	1401.720825	5192.738281	5033.452148	95.798325
711.168701	1376.690063	5352.024902	5097.166504	93.589005
711.492432	1460.884399	5406.637207	5181.360840	94.290665
711.816040	1535.976563	5415.739746	5333.820801	97.888557
712.139587	1463.159912	5472.627441	5463.525391	99.772987
712.463074	1517.772339	5404.361816	5572.750488	104.332558
712.786499	1426.751587	5429.392578	5563.648438	103.354179
713.109924	1545.078613	5524.964355	5447.596680	98.056030
713.433350	1431.302612	5652.393555	5367.953613	93.261459
713.756592	1506.394775	5499.933594	5288.310547	94.700867
714.079834	1506.394775	5381.606934	5267.830566	97.063995
714.403015	1444.955688	5292.861328	5229.146973	98.344177
714.726196	1435.853638	5365.678223	5306.514648	98.494499
715.049255	1469.986450	5433.943848	5163.156738	93.168770
715.372375	1442.680176	5181.360840	5172.258789	99.756546
715.695435	1504.119263	5160.881348	5117.646484	98.817673
716.018311	1524.598877	5101.717773	5024.350098	97.837151
716.341248	1529.150024	5133.574707	5201.840332	101.893936
716.664063	1451.782227	5181.360840	5103.993164	97.925568
716.987000	1490.466064	5292.861328	5163.156738	96.588875
717.309692	1406.271851	5251.901855	5129.023926	96.804741
717.632385	1495.017212	5092.615723	5088.064453	99.873489
717.955078	1447.231201	5201.840332	5063.033691	96.303032
718.277649	1463.159912	4924.227051	5031.176270	103.090065
718.600220	1474.537476	4956.084473	4842.308105	96.732018
718.922791	1460.884399	4919.675781	4865.063477	98.421059
719.245300	1499.568237	4851.410156	4796.797852	98.370674
719.567688	1467.710938	4805.899902	4767.216309	98.841179
719.890015	1551.905151	4758.113770	4607.929688	95.315834
720.212341	1515.496826	4703.501465	4619.307129	97.359024
720.534607	1485.915039	4576.072266	4414.510254	94.771721
720.856873	1469.986450	4610.205078	4541.939453	97.826088
721.179016	1545.078613	4564.694824	4407.683594	94.800293
721.501160	1463.159912	4453.194336	4428.163574	99.162857
721.823242	1467.710938	4441.816406	4330.315918	96.250954
722.145264	1372.139038	4500.979980	4289.356934	93.236374
722.467224	1483.639526	4507.806641	4334.867188	94.281418
722.789185	1508.670288	4400.857422	4234.744141	94.256485
723.111023	1481.364014	4357.622559	4243.846191	96.044296
723.432861	1447.231201	4225.642090	4205.162598	99.262909
723.754578	1467.710938	4307.561035	4116.416992	93.269218
724.076294	1479.088501	4202.886719	4134.621094	97.493736
724.397949	1451.782227	4346.244629	4123.243652	92.295601
724.719666	1501.843750	4157.376465	4080.008789	97.086548
725.041260	1497.292725	4250.672852	4200.611328	98.181816
725.362732	1447.231201	4298.458984	4227.917480	97.525925
725.684265	1492.741699	4375.826660	4180.131836	93.212311
726.005676	1438.129150	4341.693848	4095.937500	91.536049
726.327087	1444.955688	4357.622559	4282.530273	97.421875
726.648438	1469.986450	4396.306152	4200.611328	93.312599
726.969666	1458.608887	4375.826660	4280.254395	96.723854
727.290894	1417.649414	4444.092285	4257.499512	93.834587
727.612061	1524.598877	4446.367676	4246.121582	93.146408
727.933228	1419.924927	4434.990234	4209.713379	92.528290
728.254395	1501.843750	4455.469727	4296.183105	94.607079
728.575378	1488.190552	4541.939453	4423.612305	96.125183
728.896301	1449.506714	4566.970215	4521.459961	98.540154
729.217285	1451.782227	4412.234863	4544.214844	104.458099
729.538147	1476.812988	4576.072266	4439.541016	95.594711
729.858948	1417.649414	4626.133789	4378.102051	92.269508
730.179810	1483.639526	4642.062500	4510.082031	95.821320
730.500549	1522.323364	4521.459961	4460.020996	97.951447
730.821228	1479.088501	4535.112793	4457.745117	97.468353
731.141846	1435.853638	4453.194336	4300.734375	94.947205
731.462402	1424.476074	4510.082031	4457.745117	98.303833
731.782898	1517.772339	4500.979980	4357.622559	95.194519
732.103455	1467.710938	4503.255859	4414.510254	97.076454
732.423889	1444.955688	4507.806641	4475.949219	98.959877
732.744263	1347.108276	4657.991211	4553.316895	96.838478
733.064636	1517.772339	4601.103027	4464.571777	95.571953
733.384888	1454.057739	4573.796875	4562.419434	99.635307
733.705200	1449.506714	4571.521484	4598.827637	100.874634
734.025330	1472.261963	4612.480469	4482.775879	95.869568
734.345520	1440.404663	4585.174316	4437.265625	95.296677
734.665527	1463.159912	4648.889160	4530.562012	96.285713
734.985596	1533.701050	4612.480469	4480.500488	95.713234
735.305542	1460.884399	4494.153809	4346.244629	95.123772
735.625549	1442.680176	4441.816406	4339.417969	96.585739
735.945435	1413.098389	4353.071289	4243.846191	96.284828
736.265259	1429.027100	4423.612305	4268.876953	94.832832
736.585083	1479.088501	4205.162598	4198.335938	99.749580
736.904785	1531.425537	4280.254395	4221.091309	97.847702
737.224426	1397.169800	4116.416992	4177.855957	102.259415
737.544128	1492.741699	4036.773926	4268.876953	109.123428
737.863708	1488.190552	4150.549805	4152.825684	100.085480
738.183289	1469.986450	4148.274414	4014.018799	94.987251
738.502808	1444.955688	4266.601563	4100.488281	94.112892
738.822205	1481.364014	4180.131836	3986.712402	92.833046
739.141541	1442.680176	4218.815430	4134.621094	96.967209
739.460938	1490.466064	4316.663086	4223.366699	96.698875
739.780212	1442.680176	4166.478516	4268.876953	103.759399
740.099426	1545.078613	4191.509277	4189.233887	99.914017
740.418640	1469.986450	4380.377441	4239.295410	95.152473
740.737793	1460.884399	4362.173340	4161.927734	93.098045
741.056885	1476.812988	4259.774902	4303.009766	101.553558
741.375977	1497.292725	4303.009766	4348.520020	101.622055
741.694946	1504.119263	4216.540039	4171.029785	98.322151
742.013855	1460.884399	4282.530273	4143.723145	95.080635
742.332703	1467.710938	4102.764160	3916.171387	92.918823
742.651550	1460.884399	4100.488281	4061.804688	98.534492
742.970398	1458.608887	3993.539063	4016.294189	100.897659
743.289124	1495.017212	4057.253662	3963.957275	96.358788
743.607788	1374.414551	3968.508301	3836.528076	94.912277
743.926453	1435.853638	4064.080078	3925.273438	94.718620
744.245056	1424.476074	3957.130615	3936.650879	99.191376
744.563599	1449.506714	4077.733398	3793.293213	89.177498
744.882141	1467.710938	3961.681641	3895.691650	97.354019
745.200500	1454.057739	3925.273438	3834.252441	96.316750
745.518860	1483.639526	3909.344727	3706.823486	91.651047
745.837219	1419.924927	3973.059326	3920.722412	97.950089
746.155518	1510.945801	3929.824463	3802.395264	94.731888
746.473755	1440.404663	3802.395264	3677.241699	94.701340
746.791992	1490.466064	3845.630127	3661.312988	92.173912
747.110107	1394.894287	3797.844238	3638.557861	93.371216
747.428162	1476.812988	3929.824463	3677.241699	89.703156
747.746216	1529.150024	3838.803711	3800.119629	98.325111
748.064148	1442.680176	3604.425049	3643.108887	101.789474
748.382080	1403.996338	3759.160400	3779.640137	100.869568
748.700073	1497.292725	3786.466553	3654.486328	94.234589
749.017822	1479.088501	3831.977051	3729.578613	95.647972
749.335632	1488.190552	3859.283203	3690.894775	92.898270
749.653320	1492.741699	3734.129639	3829.701416	104.263954
749.971008	1456.333252	3795.568604	3654.486328	93.968872
750.288696	1394.894287	3875.211914	3854.732178	99.174309
750.606262	1492.741699	3747.782715	3781.915527	101.513626
750.923828	1488.190552	3786.466553	3734.129639	97.722778
751.241272	1456.333252	3806.946289	3738.680664	97.095840
751.558716	1417.649414	3822.875000	3765.986816	97.634811
751.876038	1497.292725	3872.936523	3800.119629	96.934853
752.193481	1506.394775	3722.751953	3699.996826	98.973312
752.510681	1465.435425	3756.884766	3736.405273	99.106262
752.827942	1417.649414	3768.262451	3647.659912	94.869316
753.145081	1433.578125	3843.354736	3686.343750	93.484421
753.462219	1515.496826	3677.241699	3695.445801	100.842102
753.779297	1479.088501	3665.864014	3613.527100	97.606659
754.096375	1454.057739	3672.690674	3736.405273	102.871803
754.413330	1467.710938	3759.160400	3672.690674	96.226418
754.730286	1460.884399	3891.140625	3529.332764	85.112350
755.047119	1497.292725	3704.547852	3636.282227	96.907219
755.363892	1454.057739	3788.742188	3704.547852	96.393761
755.680725	1456.333252	3634.006836	3670.415039	101.671883
755.997498	1492.741699	3697.721191	3613.527100	96.181641
756.314148	1492.741699	3690.894775	3599.874023	95.859215
756.630737	1531.425537	3618.078125	3629.455566	100.545250
756.947327	1463.159912	3622.629150	3606.700439	99.262375
757.263855	1492.741699	3552.087891	3654.486328	104.972374
757.580261	1476.812988	3750.058350	3552.087891	91.291283
757.896729	1495.017212	3645.384277	3463.342773	91.534393
758.213074	1454.057739	3611.251465	3479.271240	93.881851
758.529419	1504.119263	3731.854004	3729.578613	99.897858
758.845642	1463.159912	3729.578613	3568.016602	92.871483
759.161865	1435.853638	3652.210938	3695.445801	101.950714
759.478149	1463.159912	3781.915527	3595.322754	91.952888
759.794189	1472.261963	3743.231689	3665.864014	96.593185
760.110229	1440.404663	3863.834229	3629.455566	90.328629
760.426270	1549.629639	3813.772949	3620.353516	91.457283
760.742249	1433.578125	3699.996826	3704.547852	100.200806
761.058105	1454.057739	3800.119629	3627.180176	92.628525
761.374023	1469.986450	3720.476563	3686.343750	98.483315
761.689819	1456.333252	3797.844238	3695.445801	95.626823
762.005554	1440.404663	3643.108887	3738.680664	104.338837
762.321289	1540.527588	3711.374512	3761.435791	102.306068
762.636902	1440.404663	3875.211914	3720.476563	93.644859
762.952515	1454.057739	3781.915527	3781.915527	100.000000
763.268127	1447.231201	3809.221924	3756.884766	97.784195
763.583618	1517.772339	3818.323975	3904.793701	103.758652
763.899048	1474.537476	3888.864990	3950.304199	102.544762
764.214478	1469.986450	4264.326172	4232.468750	98.859932
764.529785	1419.924927	4637.511230	4466.847168	94.695900
764.845093	1495.017212	5035.727539	4785.420410	92.930595
765.160400	1481.364014	5197.289551	5090.339844	97.121857
765.475586	1422.200562	5094.891113	5099.441895	100.123909
765.790771	1531.425537	4921.951660	5003.870117	102.416100
766.105835	1469.986450	4926.502441	4810.451172	96.642540
766.420837	1410.822876	4815.001953	4632.960449	94.652412
766.735840	1513.221313	4500.979980	4498.704590	99.923843
767.050842	1465.435425	4309.836426	4277.979004	98.879997
767.365662	1449.506714	4198.335938	4123.243652	97.268211
767.680542	1485.915039	4157.376465	4080.008789	97.103920
767.995300	1451.782227	4100.488281	3922.997803	93.298973
768.309998	1463.159912	3875.211914	3918.446777	101.792450
768.624817	1492.741699	3950.304199	3806.946289	94.166664
768.939392	1515.496826	3872.936523	3781.915527	96.138992
769.254028	1433.578125	3879.762939	3729.578613	93.860466
769.568481	1508.670288	3706.823486	3688.619141	99.171822
769.882935	1476.812988	3709.098877	3538.434814	92.354736
770.197388	1442.680176	3645.384277	3613.527100	98.553726
770.511841	1529.150024	3531.608398	3481.546875	97.500000
770.826172	1506.394775	3552.087891	3577.118652	101.223587
771.140442	1429.027100	3597.598389	3627.180176	101.364113
771.454651	1426.751587	3406.454590	3583.945313	108.965530
771.768860	1424.476074	3542.985840	3449.689453	95.596130
772.082886	1565.558350	3602.149414	3385.974854	89.385468
772.397034	1433.578125	3392.801514	3413.281250	101.045296
772.711060	1510.945801	3483.822266	3335.913574	92.502892
773.025024	1504.119263	3508.853027	3244.892578	86.833145
773.338928	1447.231201	3431.485352	3231.239502	89.908257
773.652771	1472.261963	3406.454590	3265.372314	92.705879
773.966614	1501.843750	3356.393066	3322.260254	98.159508
774.280457	1556.456177	3306.331787	3345.015625	102.210663
774.594116	1431.302612	3288.127441	3247.168213	97.794128
774.907776	1483.639526	3347.291016	3256.270264	95.115997
775.221375	1495.017212	3292.678711	3372.321777	104.430374
775.534912	1442.680176	3235.790527	3203.933350	98.223358
775.848450	1529.150024	3315.433838	3274.474365	97.707001
776.161926	1490.466064	3240.341553	3162.973877	95.578674
776.475342	1472.261963	3228.964111	3333.637939	105.958542
776.788696	1401.720825	3185.729004	3222.137451	102.040825
777.101990	1545.078613	3224.413086	3206.208740	98.915977
777.415283	1474.537476	3197.106689	3147.045166	97.093788
777.728516	1485.915039	3288.127441	3219.861816	96.212120
778.041626	1526.874512	3162.973877	3167.524902	100.278160
778.354736	1397.169800	3203.933350	3099.259277	94.206543
778.667725	1469.986450	3183.453613	3226.688477	102.523239
778.980774	1410.822876	3178.902588	3149.320801	98.326897
779.293640	1351.659302	3172.075928	2980.932129	89.500000
779.606567	1531.425537	3074.228516	3103.810303	101.917404
779.919434	1510.945801	3165.249512	3176.626953	100.687752
780.232239	1442.680176	3147.045166	3106.085938	97.596802
780.544983	1456.333252	3117.463379	3046.922363	95.753433
780.857666	1472.261963	3192.555664	3103.810303	94.841270
781.170227	1495.017212	3153.871826	3060.575439	94.375854
781.482849	1440.404663	3074.228516	3096.983887	101.392769
781.795410	1533.701050	3074.228516	3172.075928	106.351555
782.107910	1520.047852	3051.473389	3024.167236	98.216942
782.420288	1506.394775	3058.300049	3026.442627	97.947205
782.732666	1458.608887	3021.891602	3065.126465	102.765648
783.044983	1444.955688	2933.146240	3044.646729	107.492355
783.357300	1479.088501	3008.238525	2951.350586	96.279770
783.669495	1440.404663	2985.483398	2951.350586	97.790871
783.981689	1451.782227	2951.350586	2839.849854	92.564476
784.293762	1458.608887	3062.851074	2953.625977	93.191483
784.605835	1469.986450	3017.340576	2992.309814	98.382347
784.917908	1454.057739	2914.942139	2894.462402	98.598129
785.229858	1492.741699	2962.728027	2873.982666	93.962845
785.541748	1417.649414	2953.625977	2871.707275	94.666672
785.853577	1490.466064	2835.298828	2855.778564	101.522850
786.165405	1426.751587	2912.666504	2889.911377	98.468613
786.477173	1497.292725	2842.125488	2864.880615	101.692039
786.788879	1465.435425	2889.911377	2924.044189	102.396164
787.100525	1394.894287	2928.595215	2828.472412	93.471817
787.412109	1481.364014	2926.319824	2767.033203	88.976364
787.723694	1419.924927	2846.676514	2764.757813	94.258377
788.035156	1408.547363	2905.840088	2842.125488	95.744682
788.346558	1515.496826	2919.493164	2860.329590	95.786057
788.658081	1463.159912	2892.187012	2862.605225	97.929932
788.969360	1431.302612	3019.616211	2887.635986	91.690544
789.280640	1456.333252	3096.983887	2903.564453	88.210808
789.591919	1495.017212	3188.004639	3030.993652	90.725800
789.903076	1501.843750	3026.442627	3062.851074	102.388069
790.214172	1456.333252	3046.922363	2953.625977	94.134476
790.525269	1490.466064	3058.300049	2946.799316	92.888229
790.836365	1367.588013	3060.575439	3015.064941	97.311821
791.147339	1474.537476	3056.024414	2983.207764	95.395683
791.458191	1447.231201	2980.932129	2901.289063	94.807129
791.769104	1495.017212	2958.177002	2889.911377	95.334373
792.079895	1538.252075	2883.084961	2860.329590	98.307938
792.390686	1508.670288	2833.023438	2930.870850	107.388321
792.701416	1440.404663	2807.992676	2780.686523	98.003334
793.012085	1485.915039	2812.543701	2762.482178	96.226410
793.322693	1467.710938	2867.156250	2767.033203	92.845520
793.633240	1501.843750	2830.747803	2728.349365	92.294518
793.943787	1451.782227	2842.125488	2864.880615	101.636658
794.254272	1472.261963	2833.023438	2650.981689	86.622070
794.564636	1444.955688	2737.451416	2782.961914	103.521133
794.875000	1479.088501	2751.104736	2678.288086	94.275497
795.185303	1540.527588	2776.135498	2762.482178	98.895012
795.495544	1524.598877	2751.104736	2701.043213	95.918365
795.805786	1463.159912	2780.686523	2773.859863	99.481857
796.115906	1497.292725	2924.044189	2694.216553	83.891541
796.426025	1476.812988	2833.023438	2655.532715	86.912743
796.736023	1381.241089	2739.727051	2703.318604	97.319923
797.045959	1510.945801	2817.094727	2871.707275	104.181190
797.355896	1413.098389	2753.380127	2853.503174	107.470299
797.665833	1365.312500	2926.319824	2773.859863	90.233231
797.975708	1508.670288	2782.961914	2839.849854	104.464279
798.285461	1547.354126	2864.880615	2862.605225	99.827301
798.595154	1463.159912	2798.890625	2787.512939	99.148209
798.904846	1522.323364	2710.145264	2792.063965	106.896545
799.214478	1526.874512	2764.757813	2780.686523	101.286774
799.524109	1469.986450	2721.522949	2807.992676	106.909088
799.833557	1447.231201	2817.094727	2696.492188	91.196014
800.143005	1538.252075	2710.145264	2746.553711	103.106804
800.452393	1474.537476	2705.594238	2676.012451	97.597038
800.761780	1485.915039	2650.981689	2698.767578	104.101555
801.071106	1481.364014	2696.492188	2671.461426	97.940071
801.380371	1481.364014	2676.012451	2662.359375	98.857147
801.689575	1467.710938	2764.757813	2685.114502	93.859642
801.998718	1474.537476	2712.420898	2660.083740	95.772041
802.307800	1529.150024	2696.492188	2619.124512	93.372322
802.616882	1433.578125	2637.328613	2712.420898	106.238197
802.925903	1397.169800	2753.380127	2685.114502	94.966446
803.234863	1472.261963	2676.012451	2598.644775	93.572784
803.543701	1476.812988	2682.839111	2571.338623	90.754723
803.852539	1469.986450	2657.808350	2580.440674	93.486595
804.161316	1449.506714	2630.501953	2562.236328	94.219650
804.470032	1433.578125	2546.307861	2550.858887	100.408997
804.778809	1363.036987	2600.920166	2555.409912	96.323540
805.087341	1547.354126	2703.318604	2555.409912	87.204735
805.395935	1429.027100	2635.052979	2553.134277	93.207550
805.704468	1529.150024	2646.430664	2566.787354	92.871681
806.012939	1467.710938	2589.542725	2591.818115	100.202827
806.321350	1501.843750	2575.889648	2573.614014	99.788124
806.629761	1504.119263	2578.165039	2625.950928	104.449150
806.938049	1545.078613	2578.165039	2614.573486	103.524239
807.246277	1495.017212	2701.043213	2619.124512	93.207550
807.554504	1463.159912	2610.022461	2653.257324	103.769836
807.862671	1440.404663	2612.297852	2575.889648	96.893211
808.170715	1444.955688	2635.052979	2569.062988	94.455078
808.478821	1426.751587	2682.839111	2496.246338	85.144920
808.786804	1476.812988	2691.941162	2587.267090	91.385757
809.094727	1413.098389	2630.501953	2589.542725	96.635529
809.402649	1492.741699	2534.930176	2550.858887	101.528389
809.710510	1406.271851	2550.858887	2471.215576	93.041740
810.018311	1444.955688	2591.818115	2493.970703	91.468254
810.326050	1474.537476	2532.654541	2596.369141	106.021507
810.633667	1469.986450	2484.868652	2441.633789	95.739914
810.941345	1429.027100	2489.419678	2550.858887	105.794006
811.248901	1499.568237	2571.338623	2521.277100	95.329079
811.556396	1458.608887	2500.797363	2430.256104	93.231430
811.863892	1385.792114	2532.654541	2455.286865	93.253967
812.171326	1517.772339	2557.685303	2509.899414	95.404816
812.478699	1467.710938	2412.052002	2364.266113	94.939766
812.786011	1501.843750	2412.052002	2455.286865	104.750000
813.093262	1481.364014	2425.705078	2382.470215	95.421692
813.400391	1465.435425	2489.419678	2514.450439	102.444450
813.707642	1463.159912	2434.807373	2387.021240	95.081947
814.014709	1483.639526	2478.042236	2425.705078	94.736824
814.321716	1495.017212	2434.807373	2425.705078	99.031456
814.628723	1422.200562	2434.807373	2366.541748	93.258430
814.935669	1401.720825	2530.379150	2393.847900	87.903229
815.242554	1460.884399	2423.429688	2339.235352	91.252945
815.549438	1444.955688	2512.175049	2446.184814	93.816620
815.856201	1504.119263	2439.358398	2453.011475	101.459846
816.162964	1444.955688	2591.818115	2423.429688	85.317467
816.469604	1413.098389	2468.940186	2373.368164	90.948265
816.776184	1378.965576	2375.643799	2459.837891	108.447472
817.082825	1431.302612	2441.633789	2311.929199	87.162170
817.389343	1492.741699	2466.664551	2357.439453	88.785034
817.695801	1479.088501	2459.837891	2437.082764	97.679825
818.002197	1490.466064	2482.593262	2427.980713	94.495407
818.308533	1467.710938	2425.705078	2341.510986	91.211418
818.614868	1458.608887	2446.184814	2482.593262	103.686646
818.921143	1442.680176	2519.001465	2409.776611	89.852020
819.227356	1551.905151	2462.113525	2430.256104	96.499985
819.533447	1469.986450	2512.175049	2484.868652	97.379898
819.839539	1463.159912	2500.797363	2619.124512	111.403519
820.145569	1390.343262	2553.134277	2564.511963	100.978477
820.451538	1483.639526	2637.328613	2653.257324	101.380676
820.757568	1476.812988	2689.665527	2580.440674	90.994385
821.063416	1508.670288	2814.819336	2801.166016	98.954689
821.369263	1444.955688	2862.605225	2792.063965	95.024071
821.675049	1385.792114	3074.228516	2983.207764	94.609169
821.980713	1492.741699	3065.126465	2980.932129	94.645439
822.286438	1449.506714	3192.555664	3158.422852	98.041779
822.592102	1465.435425	3465.618164	3429.209961	98.179756
822.897583	1483.639526	3820.599365	3800.119629	99.123650
823.203125	1483.639526	5222.320313	5242.799805	100.547775
823.508545	1497.292725	7484.187988	7422.749023	98.973770
823.813965	1467.710938	9577.666992	9341.012695	97.081932
824.119263	1497.292725	10781.417969	10262.598633	94.411758
824.424622	1485.915039	10071.455078	9891.688477	97.906174
824.729858	1469.986450	8722.071289	8615.122070	98.525261
825.035095	1422.200562	7593.413086	7290.768555	95.095863
825.340149	1492.741699	6576.254883	6353.253906	95.613251
825.645264	1479.088501	5795.751465	5775.271973	99.525574
825.950256	1465.435425	5404.361816	5099.441895	92.258804
826.255310	1497.292725	4840.032715	4762.665039	97.685501
826.560242	1474.537476	4642.062500	4412.234863	92.744255
826.865112	1442.680176	4298.458984	4171.029785	95.537849
827.169922	1520.047852	4073.182129	3961.681641	95.632797
827.474670	1442.680176	3893.416016	3813.772949	96.750237
827.779419	1492.741699	3859.283203	3768.262451	96.153847
828.084045	1467.710938	4350.795898	4011.743164	88.239929
828.388672	1483.639526	4764.940430	4799.073242	101.040222
828.693176	1431.302612	5233.697754	5190.462891	98.862961
828.997681	1483.639526	5333.820801	5181.360840	96.040184
829.302124	1465.435425	5028.900879	4990.217285	98.914436
829.606567	1469.986450	4526.010742	4471.398438	98.212959
829.910828	1440.404663	4132.345703	4048.151611	96.872375
830.215149	1465.435425	3720.476563	3704.547852	99.293640
830.519348	1499.568237	3561.189941	3411.005615	92.715240
830.823547	1520.047852	3283.576416	3231.239502	97.032265
831.127686	1538.252075	3137.943115	3092.432861	97.155060
831.431763	1422.200562	2996.860840	2926.319824	95.520241
831.735779	1472.261963	2787.512939	2876.258301	106.747406
832.039734	1476.812988	2782.961914	2723.798340	95.470383
832.343628	1497.292725	2691.941162	2610.022461	93.142860
832.647461	1495.017212	2630.501953	2591.818115	96.593185
832.951233	1465.435425	2671.461426	2589.542725	93.207550
833.255127	1458.608887	2544.032227	2402.949951	87.002098
833.558777	1463.159912	2591.818115	2516.726074	93.346786
833.862366	1474.537476	2530.379150	2516.726074	98.706902
834.165955	1506.394775	2703.318604	2487.144287	81.939178
834.469482	1490.466064	2842.125488	2855.778564	101.010094
834.773010	1492.741699	3081.055176	3167.524902	105.444122
835.076416	1472.261963	3572.567627	3479.271240	95.557961
835.379822	1449.506714	3759.160400	3763.711426	100.197037
835.683105	1444.955688	4041.324951	3763.711426	89.307632
835.986389	1520.047852	3781.915527	3713.649902	96.981888
836.289612	1476.812988	3502.026611	3326.811523	91.348312
836.592773	1469.986450	3185.729004	3158.422852	98.408493
836.895874	1497.292725	2990.034424	3051.473389	104.115845
837.198914	1508.670288	2894.462402	2944.523926	103.612488
837.501892	1476.812988	2867.156250	2823.921387	96.890343
837.804871	1444.955688	2726.073975	2671.461426	95.737122
838.107666	1524.598877	2607.746826	2696.492188	108.193283
838.410583	1415.373901	2603.195801	2466.664551	88.505745
838.713379	1490.466064	2519.001465	2439.358398	92.256653
839.016052	1483.639526	2368.817139	2321.031250	94.601547
839.318787	1447.231201	2380.194824	2189.051025	79.512192
839.621338	1444.955688	2214.081787	2261.867676	106.213013
839.923889	1358.485962	2289.173828	2223.183838	92.909546
840.226440	1440.404663	2259.592041	2211.806152	94.166672
840.528931	1495.017212	2161.744873	2129.887451	95.221825
840.831299	1440.404663	2259.592041	2227.734863	96.111122
841.133606	1426.751587	2323.306641	2302.827148	97.715759
841.435913	1442.680176	2505.348389	2402.949951	90.364029
841.738220	1531.425537	2471.215576	2466.664551	99.515739
842.040405	1474.537476	2500.797363	2396.123291	89.800430
842.342529	1390.343262	2496.246338	2357.439453	87.448547
842.644592	1419.924927	2389.296875	2282.347412	88.967140
842.946594	1492.741699	2373.368164	2318.755615	93.798447
843.248596	1431.302612	2241.387939	2277.796387	104.494400
843.550598	1447.231201	2211.806152	2220.908203	101.190475
843.852478	1501.843750	2179.948975	2161.744873	97.315445
844.154236	1501.843750	2182.224365	2113.958740	89.966553
844.455994	1490.466064	2091.203613	2132.163086	106.818199
844.757690	1456.333252	2136.714111	2120.785400	97.658852
845.059326	1451.782227	2007.009399	1979.703125	95.081963
845.360962	1431.302612	2002.458252	1915.988525	84.860565
845.662476	1429.027100	2000.182739	1988.805176	98.007973
845.963989	1485.915039	1993.356201	2016.111450	104.484314
846.265381	1538.252075	1956.947876	2036.591064	119.021729
846.566772	1458.608887	1970.601074	1991.080688	103.999985
846.868042	1490.466064	2000.182739	1895.508789	79.464287
847.169373	1485.915039	1988.805176	1954.672363	93.212669
847.470581	1499.568237	1954.672363	1911.437500	90.500008
847.771729	1510.945801	1904.610962	1959.223389	113.872810
848.072815	1499.568237	1954.672363	1991.080688	108.000000
848.373901	1495.017212	1938.743774	1918.264038	95.384605
848.674866	1481.364014	1977.427612	1925.090576	89.449532
848.975891	1476.812988	2022.937988	1881.855713	74.166672
849.276794	1542.803101	1997.907227	1900.059814	78.499992
849.577637	1492.741699	2011.560425	1888.682251	76.315781
849.878357	1517.772339	1906.886475	1815.865601	76.608185
850.179077	1581.486938	1927.366089	1879.580200	86.184227
850.479736	1533.701050	2007.009399	1929.641602	83.653831
850.780396	1520.047852	1925.090576	1877.304688	88.202263
851.080994	1444.955688	2057.070801	1868.202637	69.144989
851.381470	1431.302612	1988.805176	1852.273926	75.510201
851.681946	1454.057739	1952.396851	1897.784302	89.041084
851.982361	1508.670288	1938.743774	1893.233276	89.417969
852.282715	1538.252075	1890.957764	1865.927002	92.903214
852.583008	1490.466064	1904.610962	1804.488037	75.824181
852.883240	1399.445313	1915.988525	1879.580200	92.951546
853.183411	1542.803101	1856.824951	1811.314575	85.507256
853.483521	1515.496826	1875.029175	1893.233276	105.063271
853.783630	1495.017212	1945.570313	1852.273926	79.292923
854.083679	1469.986450	1909.161987	1820.416626	79.792732
854.383667	1549.629639	1852.273926	1913.713013	120.300758
854.683533	1572.384888	1904.610962	1870.478149	89.726028
854.983337	1497.292725	1788.559326	1854.549438	122.656258
855.283203	1460.884399	1879.580200	1813.590088	84.239128
855.582886	1451.782227	1925.090576	1793.110352	72.115379
855.882629	1529.150024	1870.478149	1870.478149	100.000000
856.182312	1479.088501	1868.202637	1913.713013	111.695892
856.481873	1479.088501	1852.273926	1834.069824	95.121971
856.781372	1472.261963	1797.661377	1856.824951	118.181831
857.080872	1415.373901	1811.314575	1806.763550	98.850578
857.380310	1513.221313	1847.722900	1877.304688	108.843544
857.679688	1492.741699	1879.580200	1829.518677	87.058807
857.979004	1463.159912	1793.110352	1879.580200	126.206917
858.278259	1424.476074	1815.865601	1797.661377	95.348824
858.577454	1495.017212	1795.385864	1818.141113	107.575775
858.876648	1394.894287	1861.375977	1815.865601	90.243912
859.175720	1390.343262	1784.008301	1834.069824	112.716782
859.474792	1488.190552	1820.416626	1770.355225	84.931526
859.773743	1481.364014	1818.141113	1886.406738	120.270271
860.072693	1454.057739	1870.478149	1834.069824	91.256836
860.371521	1451.782227	1859.100464	1765.804199	77.094994
860.670349	1522.323364	1865.927002	1779.457275	74.834457
860.969116	1467.710938	1758.977539	1843.171875	128.906281
861.267883	1508.670288	1797.661377	1847.722900	117.322861
861.566589	1467.710938	1811.314575	1861.375977	114.569519
861.865112	1474.537476	1813.590088	1824.967651	103.355690
862.163635	1551.905151	1838.620850	1786.283813	81.746017
862.462158	1501.843750	1847.722900	1813.590088	90.131577
862.760620	1426.751587	1865.927002	1784.008301	81.347160
863.059021	1479.088501	1854.549438	1884.131226	107.878792
863.357361	1438.129150	1886.406738	1818.141113	84.771576
863.655640	1495.017212	1786.283813	1758.977539	90.624992
863.953857	1449.506714	1818.141113	1845.447388	107.407417
864.251953	1515.496826	1861.375977	1806.763550	84.210548
864.550110	1529.150024	1788.559326	1861.375977	128.070175
864.848206	1460.884399	1763.528564	1859.100464	131.578964
865.146179	1497.292725	1824.967651	1945.570313	136.805588
865.444092	1492.741699	1856.824951	1884.131226	107.500008
865.741943	1497.292725	1809.039063	1895.508789	127.737206
866.039795	1476.812988	1806.763550	1868.202637	118.620697
866.337646	1554.180664	1822.692139	1879.580200	121.186455
866.635376	1490.466064	1836.345337	1809.039063	92.105255
866.933044	1499.568237	1813.590088	1836.345337	107.246391
867.230652	1488.190552	1824.967651	1811.314575	95.945961
867.528198	1438.129150	1881.855713	1856.824951	94.358971
867.825745	1442.680176	1877.304688	1793.110352	80.628258
868.123230	1492.741699	1779.457275	1847.722900	123.809525
868.420593	1410.822876	1877.304688	1884.131226	101.463409
868.717896	1442.680176	1859.100464	1774.906250	79.781433
869.015198	1449.506714	1838.620850	1770.355225	82.456146
869.312439	1442.680176	1804.488037	1836.345337	108.805031
869.609619	1433.578125	1802.212524	1747.599976	85.185173
869.906738	1499.568237	1834.069824	1872.753662	111.564621
870.203796	1408.547363	1890.957764	1831.794189	87.735840
870.500854	1426.751587	1831.794189	1790.834839	89.887642
870.797791	1394.894287	1768.079712	1840.896362	119.512192
871.094666	1520.047852	1834.069824	1793.110352	86.956497
871.391602	1431.302612	1824.967651	1790.834839	91.329475
871.688293	1463.159912	1799.937012	1683.885376	65.540520
871.985107	1422.200562	1777.181763	1768.079712	97.435905
872.281738	1469.986450	1809.039063	1758.977539	85.234879
872.578369	1463.159912	1884.131226	1840.896362	89.729736
872.874939	1522.323364	1863.651489	1845.447388	94.666687
873.171509	1515.496826	1820.416626	1804.488037	94.776138
873.467957	1567.833862	1900.059814	1840.896362	82.191803
873.764343	1447.231201	1790.834839	1893.233276	129.801331
874.060669	1506.394775	1947.845825	1875.029175	83.505157
874.356995	1454.057739	1975.152100	1724.844727	51.965057
874.653198	1497.292725	1840.896362	1806.763550	90.066223
874.949463	1531.425537	1897.784302	1747.599976	59.006214
875.245544	1451.782227	1786.283813	1886.406738	129.931976
875.541626	1444.955688	1836.345337	1781.732788	86.046501
875.837646	1474.537476	1831.794189	1733.946899	72.611488
876.133606	1476.812988	1875.029175	1788.559326	78.285706
876.429565	1472.261963	1854.549438	1827.243164	92.857140
876.725403	1556.456177	1811.314575	1856.824951	117.857124
877.021179	1463.159912	1845.447388	1774.906250	81.547623
877.316956	1438.129150	1861.375977	1831.794189	93.010750
877.612610	1497.292725	1847.722900	1875.029175	107.792213
877.908203	1488.190552	1875.029175	1852.273926	94.117638
878.203857	1460.884399	1849.998413	1900.059814	112.865486
878.499390	1467.710938	1790.834839	1865.927002	123.239433
878.794800	1474.537476	1804.488037	1729.395752	77.241356
879.090271	1460.884399	1886.406738	1856.824951	93.048126
879.385559	1538.252075	1861.375977	1938.743774	123.943695
879.680847	1476.812988	1827.243164	1854.549438	107.792213
879.976196	1413.098389	1843.171875	1875.029175	107.407410
880.271301	1465.435425	1931.917114	1863.651489	85.365852
880.566467	1456.333252	1975.152100	1947.845825	94.736839
880.861572	1460.884399	2027.489014	2000.182739	95.180717
881.156555	1463.159912	2091.203613	2066.172852	96.014488
881.451477	1492.741699	2120.785400	2189.051025	110.869568
881.746460	1508.670288	2343.786377	2380.194824	104.359688
882.041321	1533.701050	2721.522949	2701.043213	98.275856
882.336121	1476.812988	3472.444824	3538.434814	103.306725
882.630798	1499.568237	4343.969238	4186.958496	94.480003
882.925537	1440.404663	4874.165527	4705.776855	95.096085
883.220215	1451.782227	5001.594727	4985.666016	99.551277
883.514771	1467.710938	4880.992188	4723.980957	95.399994
883.809326	1481.364014	4623.858398	4398.581543	92.831276
884.103760	1465.435425	4232.468750	4077.733398	94.407898
884.398132	1447.231201	3893.416016	3791.017578	95.813950
884.692505	1442.680176	3613.527100	3606.700439	99.685532
884.986816	1456.333252	3511.128662	3447.414063	96.899223
885.281067	1479.088501	3322.260254	3176.626953	92.098770
885.575256	1431.302612	3137.943115	3115.187988	98.666672
885.869385	1394.894287	3044.646729	2883.084961	90.206909
886.163452	1472.261963	2735.176025	2728.349365	99.459450
886.457458	1483.639526	2637.328613	2532.654541	90.927010
886.751465	1422.200562	2400.674561	2516.726074	111.860458
887.045410	1474.537476	2373.368164	2318.755615	93.924042
887.339233	1476.812988	2264.143311	2268.694336	100.578033
887.632996	1451.782227	2177.673340	2091.203613	88.087784
887.926758	1460.884399	2209.530762	2134.438477	89.969589
888.220398	1497.292725	2059.346436	2066.172852	101.214546
888.514099	1456.333252	2098.030273	2036.591064	90.425514
888.807678	1460.884399	1954.672363	1952.396851	99.539169
889.101196	1533.701050	2011.560425	1929.641602	82.857124
889.394653	1469.986450	1947.845825	1906.886475	91.428574
889.688049	1449.506714	1938.743774	1902.335449	92.558144
889.981384	1449.506714	1975.152100	1913.713013	88.311684
890.274719	1458.608887	1952.396851	1911.437500	91.705070
890.567932	1417.649414	1975.152100	1959.223389	97.142845
>>>>>End Processed Spectral Data<<<<<
