Jaz Data File
++++++++++++++++++++++++++++++++++++
Date: Wed Sep 18 04:12:48 2024
User: jaz
Dark Spectrum Present: Yes
Reference Spectrum Present: Yes
Processed Spectrum Present: Yes
Spectrometers: JAZA3692
Integration Time (usec): 40000 (JAZA3692)
Spectra Averaged: 1 (JAZA3692)
Boxcar Smoothing: 0 (JAZA3692)
Correct for Electrical Dark: No (JAZA3692)
Strobe/Lamp Enabled: Yes (JAZA3692)
Correct for Detector Non-linearity: No (JAZA3692)
Correct for Stray Light: No (JAZA3692)
Number of Pixels in Processed Spectrum: 2048
>>>>>Begin Processed Spectral Data<<<<<
W	D	R	S	P
190.244385	0.000000	0.000000	0.000000	0.000000
190.627136	0.000000	0.000000	0.000000	0.000000
191.009842	1479.088501	1465.435425	1422.200562	416.667572
191.392532	1406.271851	1449.506714	1492.741699	200.000290
191.775177	1426.751587	1447.231201	1456.333252	144.444443
192.157791	1497.292725	1479.088501	1440.404663	312.499237
192.540390	1483.639526	1440.404663	1538.252075	-126.315994
192.922943	1472.261963	1406.271851	1515.496826	-65.517181
193.305481	1524.598877	1479.088501	1442.680176	180.000061
193.687958	1545.078613	1533.701050	1556.456177	-100.000000
194.070419	1506.394775	1488.190552	1540.527588	-187.499420
194.452866	1517.772339	1551.905151	1488.190552	-86.666718
194.835251	1490.466064	1463.159912	1510.945801	-75.000450
195.217621	1447.231201	1433.578125	1497.292725	-366.668457
195.599960	1504.119263	1488.190552	1497.292725	42.856815
195.982254	1565.558350	1554.180664	1506.394775	519.996582
196.364517	1485.915039	1570.109375	1458.608887	-32.432293
196.746750	1515.496826	1495.017212	1429.027100	422.223419
197.128952	1481.364014	1558.731689	1495.017212	17.647161
197.511139	1515.496826	1545.078613	1517.772339	7.692276
197.893280	1506.394775	1485.915039	1410.822876	466.665680
198.275391	1506.394775	1490.466064	1520.047852	-85.713631
198.657471	1451.782227	1517.772339	1508.670288	86.206947
199.039520	1472.261963	1460.884399	1469.986450	20.000000
199.421539	1426.751587	1520.047852	1535.976563	117.073257
199.803513	1524.598877	1506.394775	1510.945801	75.000000
200.185471	1510.945801	1517.772339	1481.364014	-433.335114
200.567383	1492.741699	1492.741699	1579.211426	0.000000
200.949265	1472.261963	1506.394775	1499.568237	80.000069
201.331131	1449.506714	1513.221313	1529.150024	125.000099
201.712967	1408.547363	1551.905151	1488.190552	55.555538
202.094742	1474.537476	1510.945801	1435.853638	-106.249977
202.476517	1526.874512	1460.884399	1522.323364	6.896711
202.858231	1426.751587	1504.119263	1490.466064	82.352837
203.239944	1440.404663	1458.608887	1463.159912	124.999832
203.621582	1488.190552	1529.150024	1495.017212	16.666866
204.003235	1510.945801	1495.017212	1458.608887	328.572205
204.384827	1492.741699	1542.803101	1490.466064	-4.545687
204.766388	1549.629639	1481.364014	1485.915039	93.333359
205.147934	1465.435425	1586.037964	1538.252075	60.377377
205.529449	1520.047852	1547.354126	1449.506714	-258.333069
205.910904	1533.701050	1444.955688	1510.945801	25.641058
206.292343	1438.129150	1583.762451	1488.190552	34.374969
206.673767	1529.150024	1547.354126	1458.608887	-387.501343
207.055115	1499.568237	1481.364014	1433.578125	362.498901
207.436462	1463.159912	1492.741699	1438.129150	-84.615448
207.817780	1442.680176	1483.639526	1456.333252	33.333233
208.199051	1474.537476	1515.496826	1433.578125	-100.000000
208.580307	1529.150024	1529.150024	1460.884399	0.000000
208.961517	1540.527588	1520.047852	1479.088501	299.999390
209.342712	1499.568237	1394.894287	1451.782227	45.652248
209.723846	1520.047852	1501.843750	1490.466064	162.500671
210.104965	1490.466064	1504.119263	1497.292725	50.000446
210.486069	1429.027100	1483.639526	1467.710938	70.833397
210.867111	1490.466064	1531.425537	1488.190552	-5.555522
211.248123	1490.466064	1504.119263	1469.986450	-149.998657
211.629120	1479.088501	1542.803101	1483.639526	7.142830
212.010071	1433.578125	1495.017212	1538.252075	170.370285
212.390991	1476.812988	1497.292725	1524.598877	233.332535
212.771881	1490.466064	1535.976563	1454.057739	-79.999840
213.152756	1535.976563	1517.772339	1558.731689	-124.999161
213.533569	1438.129150	1463.159912	1508.670288	281.817780
213.914368	1447.231201	1490.466064	1454.057739	15.789429
214.295135	1413.098389	1483.639526	1508.670288	135.483917
214.675858	1472.261963	1535.976563	1465.435425	-10.714245
215.056549	1463.159912	1510.945801	1504.119263	85.714325
215.437225	1469.986450	1413.098389	1419.924927	88.000053
215.817841	1492.741699	1447.231201	1472.261963	45.000027
216.198441	1438.129150	1488.190552	1472.261963	68.181892
216.579025	1397.169800	1506.394775	1454.057739	52.083271
216.959549	1490.466064	1479.088501	1433.578125	500.001068
217.340057	1476.812988	1526.874512	1492.741699	31.818270
217.720535	1472.261963	1542.803101	1476.812988	6.451591
218.100967	1433.578125	1495.017212	1476.812988	70.370293
218.481369	1492.741699	1579.211426	1426.751587	-76.315857
218.861740	1458.608887	1492.741699	1392.618774	-193.333359
219.242065	1488.190552	1492.741699	1506.394775	399.991943
219.622391	1535.976563	1488.190552	1490.466064	95.238121
220.002670	1435.853638	1488.190552	1474.537476	73.913101
220.382919	1415.373901	1490.466064	1465.435425	66.666779
220.763123	1469.986450	1515.496826	1433.578125	-80.000053
221.143295	1397.169800	1551.905151	1492.741699	61.764748
221.523453	1481.364014	1540.527588	1397.169800	-142.307510
221.903549	1442.680176	1522.323364	1481.364014	48.571434
222.283630	1508.670288	1558.731689	1529.150024	40.909233
222.663696	1481.364014	1472.261963	1479.088501	25.000000
223.043701	1506.394775	1488.190552	1501.843750	24.999832
223.423676	1513.221313	1545.078613	1476.812988	-114.285660
223.803635	1533.701050	1558.731689	1458.608887	-300.000977
224.183548	1508.670288	1508.670288	1490.466064	0.000000
224.563431	1540.527588	1508.670288	1440.404663	314.285645
224.943283	1547.354126	1481.364014	1499.568237	72.413712
225.323105	1497.292725	1545.078613	1504.119263	14.285678
225.702881	1572.384888	1554.180664	1504.119263	374.998840
226.082642	1483.639526	1501.843750	1447.231201	-199.999329
226.462357	1549.629639	1549.629639	1426.751587	0.000000
226.842041	1488.190552	1592.864502	1463.159912	-23.912960
227.221695	1476.812988	1608.793213	1419.924927	-43.103474
227.601318	1463.159912	1617.895264	1506.394775	27.941168
227.980911	1499.568237	1579.211426	1413.098389	-108.571556
228.360474	1449.506714	1615.619751	1438.129150	-6.849290
228.739990	1417.649414	1599.691162	1467.710938	27.500023
229.119476	1472.261963	1563.282837	1524.598877	57.499905
229.498932	1485.915039	1595.140137	1440.404663	-41.666592
229.878372	1522.323364	1611.068726	1501.843750	-23.076828
230.257736	1492.741699	1681.609863	1454.057739	-20.481991
230.637115	1479.088501	1727.120239	1501.843750	9.174330
231.016449	1510.945801	1749.875488	1474.537476	-15.238091
231.395737	1467.710938	1654.303589	1501.843750	18.292688
231.774994	1506.394775	1592.864502	1392.618774	-131.578995
232.154221	1463.159912	1617.895264	1424.476074	-25.000000
232.533417	1554.180664	1565.558350	1460.884399	-819.993347
232.912582	1479.088501	1535.976563	1447.231201	-55.999973
233.291702	1524.598877	1622.446289	1488.190552	-37.209290
233.670792	1495.017212	1683.885376	1440.404663	-28.915699
234.049866	1510.945801	1604.242188	1429.027100	-87.804794
234.428894	1469.986450	1551.905151	1456.333252	-16.666765
234.807892	1513.221313	1611.068726	1460.884399	-53.488297
235.186874	1431.302612	1654.303589	1469.986450	17.346937
235.565781	1469.986450	1665.681274	1483.639526	6.976718
235.944687	1408.547363	1656.579102	1460.884399	21.100943
236.323547	1438.129150	1629.272949	1435.853638	-1.190472
236.702377	1403.996338	1683.885376	1542.803101	49.593498
237.081177	1495.017212	1638.375000	1483.639526	-7.936566
237.459946	1433.578125	1592.864502	1469.986450	22.857149
237.838669	1469.986450	1679.334351	1413.098389	-27.173935
238.217361	1501.843750	1697.538574	1488.190552	-6.976780
238.596039	1501.843750	1645.201538	1533.701050	22.222231
238.974670	1592.864502	1638.375000	1465.435425	-279.999298
239.353271	1460.884399	1683.885376	1495.017212	15.306127
239.731842	1444.955688	1715.742676	1490.466064	16.806707
240.110367	1483.639526	1692.987427	1472.261963	-5.434763
240.488876	1492.741699	1729.395752	1551.905151	24.999973
240.867340	1499.568237	1686.160889	1447.231201	-28.048820
241.245789	1538.252075	1686.160889	1515.496826	-15.384647
241.624176	1495.017212	1784.008301	1524.598877	10.236186
242.002548	1467.710938	1811.314575	1476.812988	2.648997
242.380890	1444.955688	1856.824951	1499.568237	13.259681
242.759186	1533.701050	1872.753662	1513.221313	-6.040283
243.137451	1495.017212	1991.080688	1490.466064	-0.917453
243.515686	1433.578125	2070.723877	1460.884399	4.285718
243.893890	1492.741699	2161.744873	1604.242188	16.666660
244.272049	1465.435425	2088.927979	1490.466064	4.014585
244.650192	1513.221313	2072.999512	1447.231201	-11.788618
245.028290	1454.057739	1961.498901	1515.496826	12.107628
245.406357	1533.701050	1925.090576	1542.803101	2.325573
245.784393	1526.874512	1952.396851	1492.741699	-8.021392
246.162384	1397.169800	1868.202637	1451.782227	11.594187
246.540359	1520.047852	1925.090576	1526.874512	1.685417
246.918289	1497.292725	2075.274902	1403.996338	-16.141741
247.296204	1474.537476	2189.051025	1451.782227	-3.184719
247.674057	1410.822876	2323.306641	1463.159912	5.735668
248.051895	1515.496826	2521.277100	1522.323364	0.678731
248.429703	1440.404663	2544.032227	1463.159912	2.061859
248.807465	1499.568237	2628.226563	1449.506714	-4.435490
249.185196	1542.803101	2507.624023	1497.292725	-4.716977
249.562897	1438.129150	2350.613037	1522.323364	9.226926
249.940567	1495.017212	2214.081787	1485.915039	-1.265835
250.318192	1529.150024	2186.775391	1510.945801	-2.768175
250.695801	1433.578125	2068.448486	1479.088501	7.168452
251.073349	1410.822876	2093.479248	1465.435425	8.000006
251.450882	1440.404663	2013.835938	1458.608887	3.174613
251.828400	1472.261963	1997.907227	1485.915039	2.597394
252.205872	1435.853638	2007.009399	1465.435425	5.179286
252.583313	1529.150024	2072.999512	1447.231201	-15.062775
252.960693	1397.169800	2100.305664	1497.292725	14.239485
253.338074	1533.701050	2202.704102	1465.435425	-10.204082
253.715408	1488.190552	2157.193604	1460.884399	-4.081618
254.092682	1479.088501	2134.438477	1451.782227	-4.166670
254.469955	1526.874512	2070.723877	1429.027100	-17.991638
254.847198	1501.843750	2034.315552	1492.741699	-1.709396
255.224365	1488.190552	1986.529663	1454.057739	-6.849314
255.601563	1501.843750	1970.601074	1458.608887	-9.223293
255.978683	1449.506714	2018.386963	1463.159912	2.400013
256.355743	1485.915039	1997.907227	1535.976563	9.777790
256.732819	1508.670288	1991.080688	1413.098389	-19.811327
257.109894	1485.915039	1947.845825	1476.812988	-1.970436
257.486877	1474.537476	1922.815063	1504.119263	6.598989
257.863831	1463.159912	2052.519775	1426.751587	-6.177605
258.240753	1435.853638	2123.060791	1497.292725	8.940403
258.617645	1495.017212	2072.999512	1538.252075	7.480309
258.994507	1492.741699	2284.622803	1490.466064	-0.287371
259.371307	1495.017212	2261.867676	1447.231201	-6.231464
259.748108	1508.670288	2350.613037	1499.568237	-1.081077
260.124878	1403.996338	2610.022461	1515.496826	9.245279
260.501617	1447.231201	2778.410889	1463.159912	1.196586
260.878296	1456.333252	3019.616211	1524.598877	4.366812
261.254944	1458.608887	3153.871826	1520.047852	3.624156
261.631561	1513.221313	3108.361328	1463.159912	-3.138370
262.008179	1465.435425	2990.034424	1601.966675	8.955224
262.384735	1508.670288	2632.777588	1476.812988	-2.834009
262.761261	1529.150024	2464.388916	1501.843750	-2.919711
263.137695	1467.710938	2368.817139	1472.261963	0.505049
263.514191	1488.190552	2332.408936	1449.506714	-4.582208
263.890594	1440.404663	2336.959961	1520.047852	8.883244
264.267029	1520.047852	2252.765625	1556.456177	4.968943
264.643341	1538.252075	2214.081787	1492.741699	-6.734001
265.019653	1483.639526	2302.827148	1431.302612	-6.388880
265.395935	1488.190552	2307.378174	1545.078613	6.944448
265.772217	1501.843750	2264.143311	1535.976563	4.477612
266.148407	1479.088501	2300.551514	1542.803101	7.756235
266.524597	1435.853638	2209.530762	1463.159912	3.529415
266.900726	1440.404663	2298.276123	1520.047852	9.283813
267.276855	1415.373901	2468.940186	1456.333252	3.887686
267.652924	1490.466064	2496.246338	1463.159912	-2.714922
268.028992	1520.047852	2509.899414	1531.425537	1.149433
268.404999	1510.945801	2478.042236	1467.710938	-4.470584
268.781006	1538.252075	2487.144287	1488.190552	-5.275786
269.156921	1476.812988	2544.032227	1492.741699	1.492543
269.532837	1495.017212	2425.705078	1542.803101	5.134470
269.908661	1572.384888	2532.654541	1424.476074	-15.402842
270.284546	1499.568237	2512.175049	1424.476074	-7.415728
270.660339	1415.373901	2402.949951	1401.720825	-1.382483
271.036133	1476.812988	2610.022461	1517.772339	3.614455
271.411835	1467.710938	2666.910400	1474.537476	0.569258
271.787537	1424.476074	2635.052979	1531.425537	8.834586
272.163239	1454.057739	2860.329590	1556.456177	7.281554
272.538849	1406.271851	3076.504150	1506.394775	5.994551
272.914459	1406.271851	3005.962891	1499.568237	5.832150
273.290070	1472.261963	2933.146240	1524.598877	3.582550
273.665588	1522.323364	2860.329590	1535.976563	1.020414
274.041046	1481.364014	2773.859863	1495.017212	1.056344
274.416565	1419.924927	2769.308838	1501.843750	6.070831
274.791962	1474.537476	2755.655762	1531.425537	4.440500
275.167389	1497.292725	2728.349365	1547.354126	4.066539
275.542755	1451.782227	2625.950928	1513.221313	5.232561
275.918060	1495.017212	2610.022461	1481.364014	-1.224496
276.293365	1483.639526	2632.777588	1506.394775	1.980201
276.668640	1440.404663	2751.104736	1476.812988	2.777777
277.043854	1499.568237	2748.829102	1510.945801	0.910744
277.419037	1490.466064	2757.931152	1458.608887	-2.513456
277.794189	1479.088501	2707.869873	1417.649414	-5.000001
278.169312	1449.506714	2742.002686	1565.558350	8.978878
278.544373	1513.221313	2801.166016	1492.741699	-1.590100
278.919464	1526.874512	2787.512939	1501.843750	-1.985562
279.294464	1458.608887	2844.401123	1535.976563	5.582920
279.669464	1463.159912	2798.890625	1454.057739	-0.681438
280.044403	1481.364014	2760.206787	1517.772339	2.846974
280.419312	1424.476074	2710.145264	1524.598877	7.787602
280.794189	1442.680176	2701.043213	1517.772339	5.967448
281.169037	1433.578125	2885.360352	1538.252075	7.210031
281.543854	1458.608887	2821.645752	1522.323364	4.674450
281.918671	1465.435425	2921.768799	1488.190552	1.562494
282.293365	1429.027100	3005.962891	1540.527588	7.070706
282.668091	1517.772339	3117.463379	1558.731689	2.560454
283.042786	1492.741699	3122.014648	1492.741699	0.000000
283.417419	1522.323364	3238.066162	1490.466064	-1.856764
283.792053	1467.710938	3224.413086	1522.323364	3.108804
284.166595	1492.741699	3078.779541	1570.109375	4.878047
284.541138	1497.292725	3085.606201	1472.261963	-1.575933
284.915619	1458.608887	3060.575439	1520.047852	3.835222
285.290100	1542.803101	3044.646729	1574.660400	2.121213
285.664520	1495.017212	3217.586426	1524.598877	1.717299
286.038940	1465.435425	3238.066162	1533.701050	3.851091
286.413300	1465.435425	3351.842041	1465.435425	0.000000
286.787628	1451.782227	3411.005615	1567.833862	5.923349
287.161896	1490.466064	3524.781738	1508.670288	0.894857
287.536194	1506.394775	3374.597412	1510.945801	0.243604
287.910400	1435.853638	3540.710449	1572.384888	6.486486
288.284607	1433.578125	3360.944336	1476.812988	2.243210
288.658752	1490.466064	3178.902588	1495.017212	0.269548
289.032867	1501.843750	3103.810303	1529.150024	1.704547
289.406921	1403.996338	3083.330566	1570.109375	9.891601
289.781006	1422.200562	3085.606201	1458.608887	2.188782
290.154999	1417.649414	3217.586426	1488.190552	3.919089
290.529022	1467.710938	3176.626953	1495.017212	1.597871
290.902954	1460.884399	3354.117676	1542.803101	4.326921
291.276825	1504.119263	3408.730225	1472.261963	-1.672641
291.650757	1488.190552	3465.618164	1565.558350	3.912548
292.024597	1501.843750	3426.934326	1490.466064	-0.591021
292.398407	1469.986450	3388.250488	1479.088501	0.474494
292.772156	1483.639526	3315.433838	1490.466064	0.372669
293.145905	1469.986450	3194.831299	1476.812988	0.395777
293.519592	1463.159912	3238.066162	1529.150024	3.717949
293.893280	1529.150024	3197.106689	1556.456177	1.637102
294.266907	1479.088501	3354.117676	1520.047852	2.184465
294.640533	1499.568237	3358.668701	1567.833862	3.671971
295.014069	1447.231201	3467.893799	1499.568237	2.590093
295.387604	1490.466064	3545.261475	1524.598877	1.661129
295.761078	1438.129150	3568.016602	1517.772339	3.739314
296.134552	1467.710938	3649.935303	1495.017212	1.251305
296.507996	1454.057739	3622.629150	1508.670288	2.518365
296.881378	1474.537476	3629.455566	1576.935913	4.751849
297.254730	1463.159912	3711.374512	1535.976563	3.238866
297.628021	1533.701050	4016.294189	1579.211426	1.833179
298.001282	1449.506714	4041.324951	1513.221313	2.458297
298.374573	1460.884399	4029.947266	1524.598877	2.480067
298.747803	1513.221313	4132.345703	1524.598877	0.434403
299.121002	1499.568237	3975.334961	1586.037964	3.492645
299.494141	1465.435425	3718.200928	1501.843750	1.616161
299.867188	1433.578125	3740.956299	1474.537476	1.775147
300.240265	1483.639526	3665.864014	1520.047852	1.668404
300.613312	1447.231201	3665.864014	1522.323364	3.384614
300.986328	1467.710938	3449.689453	1570.109375	5.166476
301.359314	1451.782227	3488.373291	1622.446289	8.379889
301.732239	1442.680176	3392.801514	1538.252075	4.900818
302.105103	1451.782227	3376.872803	1586.037964	6.973996
302.477997	1469.986450	3504.302002	1640.650513	8.389262
302.850830	1474.537476	3529.332764	1604.242188	6.312293
303.223602	1517.772339	3492.924316	1595.140137	3.917055
303.596375	1524.598877	3333.637939	1538.252075	0.754721
303.969116	1447.231201	3301.780762	1572.384888	6.748468
304.341766	1467.710938	3379.148438	1524.598877	2.976186
304.714478	1488.190552	3390.525879	1531.425537	2.272732
305.087067	1474.537476	3194.831299	1588.313477	6.613754
305.459656	1506.394775	3379.148438	1549.629639	2.308625
305.832214	1520.047852	3267.647949	1576.935913	3.255210
306.204681	1479.088501	3260.821289	1535.976563	3.192850
306.577148	1504.119263	3247.168213	1551.905151	2.741512
306.949646	1474.537476	3365.495361	1490.466064	0.842356
307.322021	1476.812988	3342.739990	1540.527588	3.414635
307.694397	1529.150024	3240.341553	1554.180664	1.462761
308.066742	1449.506714	3242.617188	1531.425537	4.568532
308.439026	1504.119263	3315.433838	1601.966675	5.402011
308.811279	1388.067749	3404.179199	1531.425537	7.110608
309.183502	1394.894287	3558.914551	1547.354126	7.045213
309.555695	1429.027100	3634.006836	1513.221313	3.818367
309.927887	1540.527588	3672.690674	1504.119263	-1.707577
310.299988	1447.231201	3556.638916	1499.568237	2.481125
310.672058	1449.506714	3629.455566	1492.741699	1.983303
311.044128	1469.986450	3695.445801	1485.915039	0.715744
311.416168	1492.741699	3608.976074	1597.415649	4.946236
311.788147	1504.119263	3706.823486	1581.486938	3.512395
312.160065	1504.119263	3649.935303	1481.364014	-1.060447
312.531982	1442.680176	3754.609375	1572.384888	5.610237
312.903870	1460.884399	3652.210938	1504.119263	1.972999
313.275696	1426.751587	3563.465576	1588.313477	7.561232
313.647491	1506.394775	3620.353516	1572.384888	3.121637
314.019318	1408.547363	3413.281250	1481.364014	3.632235
314.391022	1490.466064	3461.067139	1504.119263	0.692844
314.762726	1440.404663	3533.883789	1501.843750	2.934784
315.134369	1422.200562	3668.139648	1501.843750	3.546098
315.505981	1447.231201	3725.027588	1520.047852	3.196802
315.877594	1479.088501	3845.630127	1545.078613	2.788462
316.249146	1456.333252	3706.823486	1492.741699	1.617801
316.620636	1438.129150	3674.966064	1517.772339	3.560527
316.992157	1488.190552	3490.648926	1611.068726	6.136366
317.363586	1458.608887	3458.791504	1549.629639	4.550622
317.735016	1495.017212	3219.861816	1535.976563	2.374669
318.106354	1529.150024	3319.984863	1515.496826	-0.762393
318.477722	1474.537476	3356.393066	1551.905151	4.111244
318.849060	1513.221313	3388.250488	1549.629639	1.941747
319.220306	1515.496826	3659.037354	1526.874512	0.530789
319.591522	1458.608887	3492.924316	1458.608887	0.000000
319.962738	1535.976563	3634.006836	1424.476074	-5.314532
320.333923	1483.639526	3558.914551	1444.955688	-1.864034
320.705017	1440.404663	3486.097900	1551.905151	5.450499
321.076111	1447.231201	3561.189941	1565.558350	5.597420
321.447144	1444.955688	3554.363525	1517.772339	3.451995
321.818176	1508.670288	3365.495361	1567.833862	3.186276
322.189178	1520.047852	3385.974854	1549.629639	1.585367
322.560120	1483.639526	3315.433838	1556.456177	3.975154
322.931030	1495.017212	3483.822266	1595.140137	5.034326
323.301910	1508.670288	3579.394287	1524.598877	0.769228
323.672729	1419.924927	3681.792725	1581.486938	7.142859
324.043549	1458.608887	3802.395264	1558.731689	4.271840
324.414337	1458.608887	3934.375488	1517.772339	2.389702
324.785095	1558.731689	4016.294189	1576.935913	0.740743
325.155792	1435.853638	4080.008789	1501.843750	2.495697
325.526428	1501.843750	4107.314941	1508.670288	0.262008
325.897034	1504.119263	3988.988037	1510.945801	0.274724
326.267670	1522.323364	4034.498291	1545.078613	0.905799
326.638184	1522.323364	4082.284424	1588.313477	2.577778
327.008728	1403.996338	3948.028564	1567.833862	6.440073
327.379211	1451.782227	4125.519043	1624.721802	6.468085
327.749634	1444.955688	4050.427002	1545.078613	3.842795
328.120026	1497.292725	3868.385254	1551.905151	2.303260
328.490417	1485.915039	3847.905762	1447.231201	-1.637764
328.860748	1510.945801	3781.915527	1501.843750	-0.400800
329.231079	1435.853638	3727.302979	1547.354126	4.865938
329.601318	1406.271851	3763.711426	1549.629639	6.081080
329.971558	1426.751587	3857.007813	1574.660400	6.086141
330.341736	1417.649414	3820.599365	1561.007324	5.965913
330.711914	1408.547363	3920.722412	1549.629639	5.615941
331.082062	1392.618774	3754.609375	1538.252075	6.165702
331.452148	1454.057739	3720.476563	1599.691162	6.425706
331.822174	1474.537476	3788.742188	1576.935913	4.424779
332.192200	1458.608887	3957.130615	1524.598877	2.641161
332.562134	1490.466064	3977.610352	1665.681274	7.044835
332.932129	1508.670288	3975.334961	1561.007324	2.121773
333.302063	1565.558350	4109.590332	1558.731689	-0.268340
333.671906	1483.639526	4293.907715	1590.588989	3.805668
334.041718	1438.129150	4230.193359	1565.558350	4.563978
334.411499	1506.394775	4241.570801	1517.772339	0.415972
334.781281	1501.843750	4339.417969	1533.701050	1.122695
335.151001	1535.976563	4330.315918	1520.047852	-0.570035
335.520721	1465.435425	4139.172363	1531.425537	2.468086
335.890350	1474.537476	4259.774902	1474.537476	0.000000
336.259979	1492.741699	4173.305176	1558.731689	2.461796
336.629547	1554.180664	4225.642090	1467.710938	-3.236795
336.999084	1458.608887	4175.580566	1531.425537	2.680067
337.368622	1481.364014	4134.621094	1526.874512	1.715269
337.738098	1513.221313	4130.070313	1481.364014	-1.217391
338.107513	1474.537476	4341.693848	1481.364014	0.238094
338.476898	1444.955688	4155.101074	1535.976563	3.358524
338.846252	1433.578125	4200.611328	1556.456177	4.440787
339.215576	1481.364014	4289.356934	1524.598877	1.539707
339.584869	1435.853638	4157.376465	1499.568237	2.341138
339.954132	1510.945801	4282.530273	1597.415649	3.119871
340.323334	1492.741699	4175.580566	1579.211426	3.223068
340.692505	1454.057739	4175.580566	1485.915039	1.170569
341.061646	1495.017212	3975.334961	1576.935913	3.302750
341.430786	1454.057739	4243.846191	1485.915039	1.141925
341.799896	1422.200562	4232.468750	1524.598877	3.643721
342.168915	1524.598877	4337.142578	1567.833862	1.537220
342.537903	1463.159912	4512.357910	1551.905151	2.910445
342.906830	1422.200562	4382.652832	1474.537476	1.767869
343.275757	1542.803101	4553.316895	1524.598877	-0.604688
343.644684	1392.618774	4475.949219	1567.833862	5.682657
344.013550	1485.915039	4669.368652	1529.150024	1.358116
344.382355	1504.119263	4482.775879	1497.292725	-0.229182
344.751129	1490.466064	4776.318359	1545.078613	1.662051
345.119873	1479.088501	4981.115234	1563.282837	2.404160
345.488586	1413.098389	5094.891113	1529.150024	3.152041
345.857269	1499.568237	5224.595703	1549.629639	1.343920
346.225891	1451.782227	5210.942871	1549.629639	2.602906
346.594482	1497.292725	5274.657227	1597.415649	2.650603
346.963043	1510.945801	5315.616699	1561.007324	1.315791
347.331543	1538.252075	5181.360840	1570.109375	0.874454
347.700043	1531.425537	4869.614746	1579.211426	1.431491
348.068512	1476.812988	4849.134766	1613.344238	4.048583
348.436951	1460.884399	4776.318359	1545.078613	2.539463
348.805328	1451.782227	4673.919922	1520.047852	2.118644
349.173645	1558.731689	4746.736328	1563.282837	0.142758
349.541931	1447.231201	4639.787109	1558.731689	3.492515
349.910217	1535.976563	4758.113770	1479.088501	-1.765538
350.278473	1479.088501	4846.859375	1526.874512	1.418921
350.646667	1472.261963	4917.400391	1476.812988	0.132100
351.014801	1513.221313	4931.053711	1606.517700	2.729695
351.382935	1403.996338	4958.359863	1492.741699	2.496800
351.751007	1397.169800	5103.993164	1556.456177	4.297113
352.119049	1431.302612	4946.982422	1524.598877	2.653719
352.487091	1454.057739	5035.727539	1558.731689	2.922490
352.855072	1417.649414	5074.411621	1624.721802	5.662725
353.222992	1515.496826	5056.207031	1631.548462	3.277637
353.590881	1435.853638	5172.258789	1508.670288	1.948842
353.958740	1476.812988	5254.177734	1517.772339	1.084337
354.326599	1408.547363	5465.800781	1567.833862	3.925969
354.694397	1526.874512	5493.107422	1588.313477	1.549051
355.062134	1438.129150	5634.189453	1572.384888	3.199566
355.429840	1495.017212	5545.444336	1581.486938	2.134830
355.797516	1458.608887	5795.751465	1663.405762	4.721931
356.165192	1497.292725	5920.905273	1611.068726	2.572016
356.532776	1465.435425	6068.813965	1583.762451	2.570439
356.900360	1517.772339	6175.763672	1586.037964	1.465559
357.267883	1467.710938	6305.468262	1640.650513	3.574788
357.635376	1488.190552	6478.407715	1708.916138	4.423166
358.002808	1431.302612	6847.041992	1665.681274	4.327732
358.370270	1490.466064	6990.399902	1624.721802	2.441043
358.737640	1442.680176	7217.952148	1642.926025	3.467297
359.105011	1579.211426	6997.226563	1624.721802	0.839982
359.472321	1417.649414	6758.296875	1645.201538	4.260759
359.839569	1442.680176	6583.081543	1645.201538	3.939797
360.206787	1504.119263	6539.846680	1674.783325	3.389065
360.574005	1538.252075	6969.920410	1661.130127	2.262252
360.941193	1515.496826	7097.349609	1636.099487	2.160621
361.308319	1472.261963	7475.085938	1667.956787	3.260046
361.675415	1517.772339	7759.525879	1788.559326	4.338316
362.042450	1449.506714	8376.192383	1747.599976	4.303548
362.409424	1463.159912	8788.061523	1786.283813	4.411307
362.776428	1479.088501	8856.327148	1765.804199	3.886491
363.143402	1510.945801	8792.612305	1711.191650	2.750000
363.510284	1456.333252	8389.844727	1756.702026	4.332130
363.877136	1410.822876	7545.626953	1617.895264	3.375371
364.243988	1510.945801	6999.501953	1613.344238	1.865672
364.610779	1444.955688	6969.920410	1586.037964	2.553542
364.977539	1463.159912	6710.510742	1663.405762	3.816133
365.344269	1490.466064	6403.315430	1743.048950	5.141271
365.710938	1460.884399	6485.234375	1674.783325	4.257246
366.077576	1513.221313	6307.743652	1733.946899	4.603703
366.444183	1474.537476	6289.539551	1692.987427	4.536861
366.810760	1479.088501	6284.988281	1629.272949	3.125002
367.177277	1438.129150	6291.814941	1645.201538	4.266292
367.543823	1456.333252	6353.253906	1692.987427	4.832714
367.910248	1517.772339	6173.487793	1674.783325	3.372435
368.276642	1460.884399	6150.732910	1706.640625	5.240174
368.643036	1499.568237	6098.395508	1718.018188	4.750123
369.009399	1435.853638	6148.457031	1711.191650	5.842588
369.375671	1458.608887	5925.456055	1663.405762	4.584819
369.741974	1517.772339	5772.996094	1718.018188	4.705883
370.108215	1474.537476	6030.129883	1636.099487	3.546455
370.474396	1456.333252	5939.109375	1652.028076	4.365483
370.840546	1474.537476	6096.120117	1667.956787	4.185132
371.206665	1499.568237	6237.202637	1729.395752	4.851103
371.572784	1524.598877	6241.753418	1674.783325	3.183793
371.938843	1469.986450	6237.202637	1743.048950	5.727923
372.304840	1476.812988	6300.916992	1631.548462	3.207548
372.670807	1476.812988	6441.999512	1770.355225	5.912008
373.036713	1431.302612	6353.253906	1652.028076	4.484511
373.402649	1438.129150	6321.396973	1720.293701	5.778192
373.768524	1413.098389	6280.437500	1756.702026	7.059374
374.134308	1388.067749	6362.355957	1736.222412	6.999085
374.500122	1499.568237	6482.958984	1756.702026	5.159816
374.865875	1476.812988	6562.602051	1772.630737	5.816556
375.231567	1488.190552	6376.009277	1699.814087	4.329611
375.597260	1442.680176	6687.755859	1702.089600	4.945771
375.962891	1485.915039	6630.867676	1743.048950	4.997790
376.328461	1406.271851	6671.827148	1743.048950	6.395852
376.694031	1381.241089	6801.531738	1768.079712	7.136861
377.059540	1460.884399	7174.717285	1815.865601	6.212663
377.425049	1513.221313	7481.912598	1670.232300	2.630576
377.790497	1442.680176	7811.862793	1777.181763	5.251876
378.155945	1529.150024	8068.996582	1900.059814	5.671536
378.521301	1526.874512	7918.812500	1811.314575	4.449982
378.886597	1535.976563	7927.914551	1806.763550	4.236383
379.251892	1499.568237	7525.147461	1786.283813	4.758307
379.617157	1497.292725	7409.095703	1788.559326	4.926866
379.982422	1490.466064	7183.819336	1818.141113	5.755396
380.347595	1556.456177	6956.267090	1777.181763	4.087654
380.712738	1463.159912	6906.205566	1834.069824	6.814382
381.077820	1390.343262	7095.073730	1743.048950	6.182688
381.442902	1533.701050	7067.767578	1827.243164	5.304275
381.807953	1474.537476	7049.563477	1749.875488	4.938776
382.172974	1467.710938	7019.981445	1827.243164	6.475409
382.537933	1469.986450	6903.930176	1779.457275	5.695142
382.902832	1454.057739	6938.062988	1765.804199	5.684649
383.267700	1474.537476	6992.675293	1868.202637	7.134022
383.632538	1529.150024	7293.043945	1811.314575	4.895380
383.997345	1447.231201	7188.370117	1813.590088	6.381293
384.362152	1458.608887	7436.401855	1881.855713	7.080319
384.726898	1504.119263	7536.524902	1804.488037	4.979253
385.091553	1508.670288	7591.137207	1811.314575	4.975683
385.456238	1535.976563	7586.586426	1913.713013	6.242949
385.820862	1465.435425	7693.535645	1888.682251	6.795762
386.185425	1474.537476	7434.126465	1856.824951	6.414662
386.549988	1413.098389	7704.913574	1872.753662	7.305606
386.914490	1485.915039	7914.261230	1840.896362	5.522125
387.278961	1408.547363	7773.179199	1861.375977	7.114765
387.643372	1465.435425	7939.291992	1822.692139	5.518453
388.007782	1454.057739	7916.537109	1870.478149	6.443663
388.372101	1381.241089	7975.700195	1988.805176	9.213251
388.736450	1410.822876	7800.485352	1893.233276	7.549857
389.100739	1363.036987	8009.833008	1904.610962	8.147896
389.464966	1467.710938	8039.415039	1934.192627	7.098337
389.829163	1510.945801	7889.230469	2009.284912	7.813058
390.193329	1492.741699	7848.271484	1925.090576	6.802720
390.557495	1481.364014	7952.945313	1941.019287	7.102674
390.921570	1472.261963	8091.751953	2050.244141	8.731521
391.285614	1440.404663	8084.925293	1988.805176	8.253425
391.649597	1463.159912	8528.652344	1997.907227	7.568437
392.013550	1508.670288	8851.776367	2075.274902	7.716144
392.377502	1438.129150	9165.797852	2011.560425	7.420495
392.741455	1403.996338	9306.879883	2102.581299	8.839621
393.105316	1533.701050	9306.879883	2002.458252	6.030444
393.469086	1522.323364	9072.500977	1986.529663	6.148283
393.832886	1501.843750	8788.061523	1963.774414	6.339787
394.196655	1479.088501	8972.378906	1941.019287	6.164592
394.560333	1440.404663	9186.277344	2032.040039	7.638072
394.924042	1485.915039	9363.768555	1961.498901	6.036973
395.287659	1460.884399	9240.889648	2032.040039	7.341327
395.651245	1467.710938	9170.348633	1913.713013	5.790251
396.014771	1403.996338	8958.725586	2109.407715	9.337348
396.378296	1469.986450	8606.019531	1931.917114	6.473214
396.741791	1490.466064	8592.366211	2000.182739	7.177187
397.105255	1474.537476	8492.243164	1884.131226	5.836576
397.468628	1463.159912	8282.895508	1856.824951	5.772439
397.832001	1399.445313	8273.793945	2041.142212	9.334658
398.195313	1499.568237	8394.396484	1934.192627	6.303629
398.558624	1406.271851	8276.069336	1972.876587	8.247765
398.921844	1424.476074	8342.059570	1959.223389	7.730262
399.285095	1460.884399	8294.273438	1911.437500	6.593406
399.648254	1515.496826	8214.629883	1922.815063	6.080163
400.011383	1374.414551	8344.334961	1972.876587	8.586354
400.374451	1492.741699	8278.344727	2004.733887	7.545272
400.737549	1488.190552	8278.344727	1945.570313	6.735926
401.100586	1481.364014	8423.977539	2009.284912	7.604066
401.463562	1476.812988	8189.599121	1900.059814	6.305084
401.826508	1401.720825	8537.753906	1961.498901	7.844387
402.189392	1426.751587	8187.323730	1966.049927	7.977111
402.552246	1476.812988	8501.345703	2000.182739	7.450599
402.915070	1444.955688	8332.957031	1890.957764	6.475058
403.277893	1460.884399	8594.641602	1959.223389	6.985645
403.640656	1506.394775	8565.060547	1986.529663	6.802063
404.003326	1483.639526	9047.470703	1966.049927	6.377858
404.366028	1483.639526	8856.327148	2061.621826	7.839506
404.728699	1485.915039	9227.237305	2070.723877	7.554379
405.091248	1440.404663	9534.432617	2063.897461	7.703122
405.453857	1435.853638	9575.391602	2100.305664	8.163264
405.816345	1463.159912	9466.166992	2002.458252	6.738697
406.178833	1495.017212	9538.983398	2072.999512	7.185290
406.541260	1476.812988	9759.708984	2025.213501	6.620879
406.903687	1540.527588	9593.595703	2018.386963	5.933879
407.266052	1447.231201	9429.757813	1952.396851	6.328393
407.628387	1440.404663	9322.808594	2027.489014	7.448037
407.990662	1497.292725	9031.541992	1909.161987	5.466627
408.352905	1469.986450	9165.797852	1986.529663	6.712005
408.715118	1454.057739	9277.297852	2079.825928	7.998837
409.077332	1501.843750	9149.869141	2016.111450	6.724189
409.439484	1476.812988	9147.593750	1997.907227	6.793236
409.801575	1481.364014	9147.593750	2020.662476	7.034729
410.163605	1504.119263	9293.226563	2007.009399	6.456326
410.525635	1499.568237	9527.605469	1970.601074	5.867348
410.887604	1449.506714	9586.769531	1966.049927	6.347874
411.249573	1513.221313	9595.871094	1997.907227	5.996622
411.611481	1485.915039	9650.483398	1997.907227	6.270903
411.973328	1504.119263	9616.350586	2066.172852	6.928471
412.335144	1488.190552	9686.891602	1997.907227	6.217042
412.696930	1524.598877	9395.625000	2050.244141	6.678230
413.058685	1454.057739	9309.155273	1981.978638	6.720743
413.420410	1501.843750	9377.420898	2061.621826	7.107772
413.782104	1483.639526	9593.595703	1977.427612	6.088665
414.143707	1492.741699	9454.789063	1938.743774	5.601600
414.505310	1392.618774	9472.993164	1911.437500	6.420726
414.866852	1444.955688	9548.084961	2009.284912	6.964337
415.228394	1467.710938	9705.096680	1927.366089	5.580110
415.589874	1485.915039	9752.881836	1970.601074	5.862925
415.951324	1460.884399	9887.137695	2016.111450	6.589252
416.312683	1406.271851	10305.833984	1977.427612	6.417796
416.674072	1397.169800	10549.314453	2007.009399	6.663352
417.035370	1426.751587	10656.263672	2047.968750	6.730770
417.396667	1479.088501	11134.123047	2025.213501	5.656375
417.757935	1451.782227	11020.347656	2045.693237	6.206897
418.119141	1483.639526	11140.950195	2032.040039	5.678605
418.480286	1520.047852	11655.217773	2107.132324	5.792547
418.841400	1526.874512	12269.608398	2100.305664	5.337851
419.202484	1413.098389	12551.772461	2148.091553	6.598570
419.563568	1435.853638	12742.916016	2111.683350	5.977058
419.924591	1440.404663	13721.390625	2223.183838	6.373911
420.285553	1460.884399	13939.840820	2239.112549	6.236324
420.646484	1463.159912	14547.404297	2318.755615	6.539130
421.007355	1485.915039	14850.048828	2275.520752	5.908394
421.368225	1458.608887	15792.114258	2207.255127	5.223051
421.729065	1481.364014	16094.758789	2352.888428	5.963874
422.089874	1469.986450	16784.242188	2425.705078	6.240712
422.450592	1508.670288	16640.882813	2496.246338	6.526316
422.811279	1454.057739	16563.515625	2361.990479	6.009036
423.171936	1435.853638	16431.535156	2327.857666	5.948406
423.532593	1456.333252	16083.380859	2352.888428	6.129434
423.893127	1401.720825	16492.974609	2364.266113	6.378166
424.253723	1456.333252	16754.660156	2391.572266	6.113342
424.614197	1435.853638	16577.169922	2427.980713	6.552449
424.974670	1440.404663	17266.652344	2407.500977	6.110711
425.335052	1403.996338	17400.908203	2432.531738	6.429587
425.695496	1442.680176	16938.976563	2393.847900	6.138032
426.055817	1485.915039	16970.833984	2373.368164	5.731080
426.416168	1563.282837	16725.078125	2323.306641	5.012756
426.776398	1460.884399	15855.829102	2336.959961	6.085995
427.136627	1433.578125	15321.082031	2341.510986	6.537768
427.496826	1463.159912	15205.030273	2255.041016	5.762542
427.856995	1488.190552	14615.669922	2280.071777	6.032241
428.217102	1492.741699	14026.310547	2227.734863	5.864197
428.577179	1472.261963	14110.504883	2277.796387	6.373785
428.937195	1467.710938	13409.644531	2277.796387	6.783537
429.297180	1444.955688	13282.214844	2239.112549	6.708959
429.657135	1442.680176	13550.726563	2177.673340	6.070287
430.017059	1472.261963	13475.633789	2252.765625	6.502370
430.376984	1490.466064	13047.835938	2195.877686	6.103565
430.736786	1408.547363	12818.008789	2245.938965	7.339449
431.096588	1508.670288	12833.937500	2236.836914	6.429575
431.456360	1465.435425	13095.622070	2150.367188	5.889258
431.816071	1454.057739	12474.405273	2266.418701	7.371464
432.175781	1444.955688	12456.201172	2193.602051	6.798925
432.535400	1390.343262	12576.803711	2248.214600	7.668836
432.895020	1440.404663	12563.150391	2129.887451	6.198854
433.254578	1454.057739	12688.303711	2138.989502	6.096820
433.614105	1422.200562	12827.110352	2113.958740	6.065442
433.973602	1451.782227	13273.113281	2164.020264	6.025024
434.333038	1449.506714	13514.318359	2148.091553	5.790267
434.692444	1454.057739	13339.102539	2218.632813	6.433085
435.051819	1479.088501	13671.329102	2168.571289	5.655095
435.411133	1440.404663	13502.940430	2164.020264	5.998868
435.770416	1469.986450	13047.835938	2118.509766	5.601414
436.129669	1472.261963	13598.512695	2200.428711	6.004879
436.488861	1417.649414	13047.835938	2277.796387	7.395814
436.848083	1454.057739	13325.450195	2227.734863	6.517156
437.207184	1497.292725	13136.582031	2270.969727	6.647116
437.566254	1472.261963	13534.797852	2220.908203	6.206375
437.925293	1504.119263	13411.919922	2318.755615	6.841199
438.284363	1540.527588	13623.542969	2241.387939	5.800376
438.643311	1472.261963	13757.798828	2234.561523	6.204854
439.002258	1517.772339	13898.880859	2282.347412	6.175336
439.361145	1501.843750	14510.996094	2264.143311	5.859717
439.719971	1515.496826	14982.029297	2350.613037	6.201420
440.078827	1481.364014	14761.303711	2352.888428	6.562714
440.437592	1408.547363	15214.131836	2416.603027	7.301796
440.796295	1497.292725	15271.020508	2389.296875	6.476128
441.155029	1508.670288	16420.158203	2405.225586	6.012514
441.513672	1490.466064	16736.455078	2519.001465	6.746269
441.872253	1458.608887	16925.324219	2541.756836	7.003090
442.230865	1533.701050	16543.037109	2443.909424	6.064281
442.589386	1481.364014	16420.158203	2498.521729	6.808834
442.947876	1469.986450	16190.330078	2464.388916	6.755294
443.306335	1517.772339	16019.666016	2478.042236	6.621686
443.664764	1417.649414	15088.978516	2368.817139	6.957390
444.023102	1426.751587	15482.643555	2391.572266	6.864173
444.381500	1390.343262	15446.235352	2493.970703	7.851707
444.739777	1447.231201	15428.031250	2414.327637	6.917318
445.098022	1524.598877	15573.664063	2489.419678	6.867509
445.456238	1492.741699	15626.000977	2405.225586	6.456287
445.814423	1442.680176	15867.207031	2487.144287	7.240890
446.172577	1422.200562	16875.261719	2582.716064	7.509939
446.530701	1499.568237	16538.484375	2621.399902	7.459525
446.888733	1472.261963	17278.029297	2650.981689	7.457529
447.246765	1381.241089	17999.369141	2657.808350	7.681775
447.604736	1472.261963	17749.062500	2637.328613	7.157835
447.962677	1508.670288	17931.103516	2730.625000	7.440765
448.320587	1456.333252	18245.125000	2691.941162	7.359719
448.678436	1438.129150	17942.482422	2660.083740	7.403832
449.036255	1490.466064	17539.714844	2666.910400	7.330214
449.394043	1449.506714	16543.037109	2653.257324	7.975276
449.751770	1460.884399	17016.343750	2587.267090	7.241076
450.109467	1474.537476	16590.822266	2735.176025	8.339605
450.467163	1444.955688	16643.158203	2716.971924	8.369518
450.824768	1474.537476	16090.208008	2637.328613	7.955783
451.182343	1501.843750	16087.931641	2623.675537	7.691108
451.539886	1394.894287	15441.684570	2698.767578	9.282357
451.897369	1438.129150	15503.123047	2662.359375	8.704093
452.254822	1510.945801	15327.908203	2646.430664	8.218050
452.612274	1476.812988	15666.960938	2625.950928	8.098139
452.969635	1476.812988	15368.867188	2555.409912	7.764128
453.326965	1426.751587	15589.592773	2584.991699	8.178021
453.684326	1465.435425	15355.214844	2610.022461	8.240499
454.041534	1522.323364	15068.499023	2575.889648	7.777592
454.398773	1533.701050	14740.824219	2616.848877	8.201240
454.755951	1524.598877	14574.710938	2596.369141	8.212729
455.113098	1488.190552	14112.780273	2676.012451	9.408796
455.470215	1449.506714	14222.004883	2637.328613	9.299840
455.827240	1469.986450	14094.576172	2575.889648	8.759913
456.184265	1474.537476	13871.575195	2548.583252	8.663729
456.541260	1433.578125	13903.431641	2557.685303	9.014598
456.898193	1504.119263	13755.523438	2557.685303	8.599553
457.255096	1515.496826	14103.677734	2641.879639	8.947940
457.611969	1490.466064	13723.666016	2625.950928	9.281994
457.968781	1419.924927	13960.320313	2569.062988	9.163491
458.325531	1356.210449	14108.228516	2616.848877	9.885796
458.682312	1510.945801	14950.171875	2721.522949	9.007789
459.039001	1435.853638	15239.163086	2787.512939	9.792284
459.395630	1501.843750	15960.502930	2853.503174	9.348442
459.752289	1456.333252	16902.568359	2951.350586	9.678846
460.108856	1492.741699	18600.107422	3090.157227	9.337589
460.465363	1499.568237	18911.853516	3226.688477	9.918975
460.821899	1449.506714	19389.712891	3174.351563	9.614408
461.178345	1431.302612	18784.423828	3158.422852	9.952793
461.534760	1501.843750	18786.699219	3165.249512	9.623487
461.891144	1454.057739	18099.492188	3256.270264	10.827068
462.247467	1474.537476	17073.232422	3099.259277	10.415754
462.603760	1522.323364	16875.261719	3085.606201	10.182303
462.960052	1451.782227	16329.137695	2930.870850	9.941878
463.316254	1469.986450	15887.686523	2965.003662	10.369318
463.672424	1458.608887	15252.816406	2910.391113	10.524579
464.028564	1481.364014	14870.528320	2980.932129	11.199863
464.384644	1440.404663	14677.109375	2817.094727	10.400550
464.740723	1417.649414	14743.099609	3071.953125	12.414618
465.096741	1408.547363	14715.792969	2960.452637	11.662107
465.452698	1444.955688	14586.087891	2953.625977	11.480520
465.808655	1454.057739	14877.355469	3033.269287	11.764707
466.164520	1449.506714	14733.997070	3015.064941	11.784858
466.520355	1485.915039	15318.805664	3015.064941	11.054449
466.876190	1526.874512	15145.866211	3185.729004	12.180449
467.231964	1558.731689	15391.623047	3042.371338	10.725449
467.587677	1481.364014	15958.227539	3192.555664	11.820183
467.943390	1501.843750	16267.698242	3158.422852	11.218986
468.299011	1556.456177	15851.278320	3260.821289	11.922955
468.654633	1545.078613	15582.766602	3249.443604	12.141352
469.010223	1513.221313	15512.225586	3194.831299	12.012355
469.365723	1472.261963	15489.469727	3288.127441	12.954545
469.721191	1542.803101	15218.683594	3247.168213	12.462562
470.076660	1438.129150	14697.588867	3158.422852	12.974086
470.432068	1467.710938	14966.100586	3185.729004	12.727578
470.787445	1469.986450	14779.507813	3185.729004	12.891091
471.142792	1465.435425	14843.222656	3317.709229	13.845891
471.498016	1495.017212	14772.680664	3256.270264	13.264782
471.853271	1492.741699	14995.681641	3335.913574	13.650153
472.208496	1408.547363	15018.437500	3433.760986	14.880455
472.563660	1447.231201	14975.202148	3351.842041	14.079058
472.918762	1524.598877	15143.590820	3479.271240	14.352548
473.273865	1490.466064	15491.746094	3531.608398	14.578255
473.628876	1501.843750	16097.034180	3572.567627	14.187714
473.983917	1483.639526	15933.196289	3720.476563	15.480315
474.338837	1479.088501	15773.910156	3729.578613	15.743396
474.693787	1410.822876	16097.034180	3750.058350	15.928106
475.048645	1467.710938	15705.644531	3731.854004	15.902188
475.403503	1479.088501	16006.013672	3727.302979	15.476189
475.758270	1449.506714	16188.054688	3754.609375	15.639956
476.113037	1451.782227	16281.351563	3882.038574	16.387909
476.467773	1406.271851	16292.728516	4002.641113	17.441149
476.822418	1451.782227	17332.642578	4054.978027	16.392033
477.177063	1479.088501	17048.201172	3991.263428	16.135633
477.531647	1479.088501	17118.742188	4239.295410	17.648773
477.886200	1492.741699	17651.214844	4362.173340	17.758062
478.240723	1522.323364	18108.593750	4530.562012	18.136923
478.595184	1463.159912	18602.382813	4594.276367	18.268719
478.949585	1476.812988	18857.240234	4623.858398	18.106834
479.303986	1410.822876	18918.679688	4769.491699	19.183781
479.658325	1492.741699	19034.732422	4739.909668	18.510830
480.012634	1444.955688	19198.568359	4787.695801	18.828506
480.366913	1469.986450	19596.785156	5003.870117	19.495356
480.721130	1419.924927	19769.724609	5176.810059	20.473713
481.075317	1438.129150	20520.646484	5340.647461	20.450752
481.429474	1442.680176	21492.294922	5549.995117	20.485754
481.783569	1499.568237	22404.777344	5709.281738	20.137150
482.137604	1545.078613	22978.208984	5923.180664	20.426796
482.491669	1435.853638	24741.738281	6471.581055	21.607107
482.845612	1472.261963	27449.607422	7067.767578	21.539944
483.199554	1510.945801	30141.548828	7857.373535	22.166588
483.553436	1517.772339	34849.601563	9047.470703	22.590115
483.907318	1506.394775	40982.128906	10567.518555	22.953655
484.261139	1438.129150	47715.394531	12433.445313	23.759649
484.614899	1431.302612	51645.218750	13525.695313	24.085737
484.968628	1490.466064	53203.953125	14117.331055	24.416967
485.322357	1451.782227	51103.644531	13814.686523	24.899176
485.675964	1499.568237	47895.160156	12952.264648	24.684879
486.029572	1374.414551	44331.695313	12023.851563	24.790762
486.383148	1401.720825	41557.835938	11664.319336	25.556753
486.736694	1485.915039	38729.363281	11220.592773	26.137960
487.090149	1410.822876	37864.667969	11179.633789	26.797752
487.443604	1495.017212	38840.863281	11373.052734	26.450157
487.796997	1510.945801	40010.480469	12169.485352	27.684851
488.150360	1449.506714	41054.945313	12883.999023	28.871016
488.503693	1456.333252	42338.339844	13086.520508	28.448181
488.856964	1397.169800	41735.328125	13625.818359	30.315334
489.210175	1463.159912	40301.750000	13052.387695	29.839466
489.563416	1419.924927	38449.476563	12463.027344	29.822405
489.916565	1424.476074	36098.863281	11850.912109	30.069561
490.269653	1463.159912	33670.882813	11332.093750	30.641514
490.622772	1531.425537	32198.619141	11309.338867	31.883951
490.975769	1501.843750	31581.953125	11118.194336	31.969135
491.328735	1449.506714	32553.601563	11721.208008	33.023628
491.681732	1526.874512	34171.496094	12672.375000	34.141918
492.034607	1520.047852	36492.527344	13500.665039	34.257271
492.387482	1429.027100	37555.195313	13878.401367	34.460819
492.740326	1442.680176	37293.511719	14162.841797	35.480801
493.093079	1385.792114	36121.617188	13796.482422	35.728790
493.445862	1520.047852	33290.871094	12838.488281	35.625267
493.798523	1490.466064	30981.214844	12185.414063	36.265434
494.151215	1390.343262	28876.359375	11502.757813	36.791122
494.503815	1426.751587	26425.623047	10867.887695	37.766247
494.856384	1438.129150	25249.179688	10533.385742	38.197628
495.208923	1458.608887	24202.439453	9955.403320	37.358681
495.561432	1497.292725	22978.208984	9732.402344	38.336864
495.913879	1433.578125	22445.736328	9975.882813	40.654102
496.266296	1442.680176	22404.777344	10071.455078	41.163700
496.618683	1526.874512	22306.929688	10076.005859	41.141041
496.970978	1554.180664	22630.054688	10424.161133	42.085941
497.323273	1504.119263	23310.435547	10626.682617	41.834499
497.675507	1488.190552	23155.699219	10956.632813	43.698807
498.027710	1442.680176	23440.140625	11170.531250	44.222610
498.379852	1458.608887	23383.251953	11084.061523	43.902439
498.731995	1479.088501	23025.994141	11270.654297	45.443024
499.084076	1431.302612	22671.013672	11322.991211	46.571671
499.436096	1497.292725	22668.738281	11325.266602	46.420891
499.788086	1458.608887	21906.439453	11191.011719	47.596260
500.140106	1442.680176	21464.988281	11200.113281	48.732811
500.491943	1492.741699	21180.546875	10981.663086	48.196953
500.843842	1429.027100	21100.904297	11181.909180	49.577789
501.195679	1454.057739	20172.492188	10879.264648	50.352543
501.547455	1499.568237	19719.664063	10847.407227	51.305103
501.899231	1501.843750	20072.369141	11045.377930	51.390759
502.250885	1492.741699	19865.296875	11129.572266	52.452312
502.602600	1460.884399	19660.500000	10949.805664	52.138031
502.954193	1479.088501	19908.531250	11054.480469	51.957031
503.305786	1474.537476	19683.255859	11388.981445	54.448887
503.657379	1438.129150	19758.347656	11379.879883	54.266552
504.008820	1454.057739	19492.111328	11668.871094	56.629246
504.360291	1526.874512	19944.939453	11659.768555	55.016068
504.711700	1467.710938	19610.437500	11869.116211	57.330994
505.063080	1474.537476	19976.796875	12174.036133	57.828068
505.414368	1469.986450	20204.349609	12126.250000	56.880844
505.765656	1474.537476	19951.765625	12408.415039	59.174881
506.116943	1429.027100	19574.029297	12253.679688	59.656387
506.468109	1469.986450	19667.326172	12576.803711	61.035389
506.819305	1410.822876	19649.123047	12351.527344	59.987518
507.170410	1463.159912	19717.388672	12692.855469	61.518322
507.521484	1538.252075	19437.498047	12526.742188	61.390800
507.872559	1458.608887	19587.683594	12863.519531	62.909500
508.223480	1422.200562	19749.244141	12990.948242	63.123920
508.574493	1531.425537	20163.390625	13443.777344	63.935024
508.925385	1479.088501	20338.605469	13634.920898	64.454628
509.276245	1481.364014	20561.605469	13878.401367	64.973167
509.627045	1549.629639	20486.513672	14349.434570	67.591927
509.977814	1449.506714	21260.191406	14415.423828	65.449104
510.328613	1449.506714	21012.158203	14827.293945	68.384323
510.679260	1504.119263	21173.720703	14991.130859	68.567795
511.029999	1538.252075	21594.693359	15332.458984	68.776939
511.380585	1476.812988	21742.601563	14929.692383	66.382210
511.731140	1483.639526	21635.652344	15730.675781	70.697830
512.081726	1469.986450	22052.072266	15721.573242	69.242676
512.432129	1504.119263	22209.083984	16215.361328	71.051758
512.782654	1463.159912	22313.757813	16060.625977	70.009819
513.133057	1492.741699	22630.054688	16677.291016	71.837654
513.483398	1422.200562	22352.441406	16420.158203	71.656883
513.833801	1449.506714	22484.421875	16636.332031	72.198174
514.183960	1415.373901	22268.246094	16706.873047	73.330421
514.534302	1488.190552	22225.011719	16581.720703	72.786133
514.884460	1554.180664	22038.419922	16513.455078	73.028221
515.234619	1469.986450	21606.070313	16738.730469	75.827774
515.584717	1435.853638	21455.884766	16488.423828	75.187546
515.934753	1422.200562	21826.794922	16761.486328	75.175652
516.284851	1454.057739	21535.529297	16918.498047	77.008507
516.634766	1465.435425	22225.011719	17198.386719	75.786476
516.984741	1417.649414	22434.359375	17109.640625	74.664352
517.334595	1460.884399	22709.697266	17742.236328	76.622406
517.684448	1447.231201	23583.498047	18668.373047	77.796051
518.034363	1522.323364	24186.509766	19052.935547	77.349396
518.384094	1513.221313	24951.085938	19844.816406	78.213593
518.733826	1535.976563	26154.835938	21121.384766	79.554489
519.083496	1483.639526	27294.871094	21606.070313	77.959984
519.433167	1476.812988	27460.984375	21897.335938	78.588318
519.782776	1510.945801	27440.505859	22047.521484	79.201408
520.132324	1526.874512	27087.798828	22202.255859	80.886673
520.481873	1440.404663	26664.552734	21587.865234	79.873703
520.831299	1483.639526	26066.089844	21373.966797	80.912712
521.180786	1508.670288	25483.556641	20852.873047	80.685272
521.530151	1479.088501	24967.013672	20500.166016	80.982368
521.879517	1413.098389	24648.441406	20272.615234	81.167374
522.228882	1469.986450	24864.615234	20149.736328	79.846321
522.578064	1490.466064	24379.929688	20274.890625	82.065811
522.927307	1492.741699	24420.888672	20379.564453	82.373962
523.276489	1490.466064	24423.164063	20188.419922	81.534035
523.625610	1435.853638	24668.921875	20215.726563	80.832512
523.974792	1431.302612	25144.503906	20896.107422	82.084259
524.323792	1492.741699	25249.179688	20855.148438	81.503830
524.672852	1497.292725	25836.263672	21594.693359	82.572929
525.021790	1474.537476	26179.867188	22040.695313	83.245834
525.370728	1524.598877	27501.945313	23135.220703	83.190262
525.719604	1456.333252	28635.154297	24211.541016	83.724045
526.068420	1469.986450	30207.539063	25126.300781	82.318474
526.417297	1506.394775	31577.402344	26960.371094	84.646240
526.765991	1479.088501	32332.875000	27274.392578	83.604988
527.114746	1472.261963	33479.738281	28352.988281	83.982651
527.463379	1469.986450	34442.281250	29388.351563	84.672195
527.812012	1504.119263	35973.707031	30828.755859	85.073944
528.160706	1440.404663	38692.957031	32974.570313	84.649681
528.509155	1481.364014	42053.898438	36458.394531	86.208641
528.857727	1483.639526	47101.003906	40490.617188	85.509056
529.206177	1419.924927	51372.156250	44839.136719	86.921463
529.554565	1495.017212	52928.613281	46097.500000	86.718575
529.902893	1529.150024	51904.628906	45307.894531	86.904869
530.251221	1520.047852	49972.710938	43046.027344	85.704224
530.599548	1469.986450	47023.636719	40244.859375	85.119133
530.947876	1504.119263	43152.976563	37329.917969	86.018684
531.296021	1435.853638	40135.636719	35181.828125	87.199387
531.644165	1476.812988	37750.890625	32655.998047	85.954453
531.992249	1479.088501	35552.738281	31129.125000	87.017502
532.340454	1456.333252	34303.476563	29756.986328	86.158638
532.688354	1447.231201	33980.351563	29970.884766	87.675735
533.036438	1499.568237	33996.281250	30030.048828	87.794975
533.384338	1488.190552	35887.238281	31998.373047	88.694847
533.732239	1449.506714	37450.519531	33522.972656	89.090462
534.080139	1422.200562	39068.417969	34763.132813	88.563828
534.427917	1415.373901	38888.652344	34749.476563	88.954330
534.775757	1469.986450	37318.542969	33108.828125	88.256950
535.123474	1449.506714	35616.453125	32337.425781	90.402931
535.471191	1481.364014	33898.433594	30680.847656	90.074409
535.818848	1529.150024	32742.468750	29693.271484	90.231102
536.166382	1408.547363	31606.984375	28616.949219	90.098709
536.513977	1460.884399	31383.982422	28685.214844	90.980988
536.861511	1506.394775	31481.830078	28915.042969	91.437035
537.208984	1444.955688	31786.750000	29247.269531	91.630424
537.556396	1463.159912	31525.064453	28928.695313	91.363258
537.903809	1424.476074	31397.636719	28448.560547	90.160942
538.251160	1476.812988	30257.599609	27943.394531	91.959198
538.598389	1447.231201	29251.820313	26894.380859	91.521400
538.945740	1469.986450	28198.253906	26245.857422	92.695389
539.292969	1460.884399	27706.742188	25874.947266	93.020630
539.640137	1460.884399	27654.404297	25727.039063	92.641823
539.987244	1535.976563	27272.117188	25711.109375	93.934570
540.334351	1476.812988	28020.763672	26334.601563	93.647659
540.681458	1490.466064	28603.296875	27055.941406	94.292900
541.028442	1422.200562	30926.603516	29092.533203	93.783737
541.375366	1506.394775	33918.914063	31682.076172	93.098846
541.722290	1469.986450	36415.160156	34678.937500	95.031578
542.069153	1474.537476	38522.292969	36758.761719	95.239845
542.416016	1495.017212	39883.054688	37525.613281	93.858917
542.762756	1513.221313	39232.253906	36918.050781	93.864624
543.109558	1504.119263	37896.523438	35900.890625	94.516350
543.456299	1449.506714	37120.570313	34376.292969	92.306709
543.802917	1506.394775	35029.367188	33511.593750	95.472435
544.149536	1413.098389	34121.433594	32524.019531	95.116188
544.496094	1463.159912	32112.150391	30571.621094	94.973640
544.842651	1447.231201	30603.478516	29026.542969	94.591431
545.189148	1456.333252	28946.900391	27749.976563	95.646057
545.535583	1465.435425	27909.261719	26186.693359	93.485931
545.882019	1513.221313	26926.238281	25599.609375	94.779724
546.228333	1463.159912	26136.632813	25167.259766	96.071190
546.574707	1433.578125	26204.898438	25110.371094	95.581474
546.920898	1447.231201	26318.673828	25292.414063	95.873741
547.267212	1495.017212	26132.080078	24969.289063	95.280319
547.613342	1444.955688	26241.306641	25064.861328	95.255569
547.959473	1444.955688	25927.283203	24967.013672	96.077705
548.305664	1454.057739	25663.324219	23918.000000	92.790680
548.651611	1517.772339	24500.533203	23569.843750	95.950493
548.997742	1526.874512	23385.527344	22702.871094	96.876953
549.343689	1481.364014	22873.535156	21510.498047	93.628334
549.689575	1399.445313	21890.509766	21094.078125	96.113274
550.035522	1506.394775	21287.498047	20698.136719	97.020584
550.381287	1485.915039	20638.974609	19539.896484	94.261604
550.727173	1451.782227	20158.837891	19232.701172	95.049263
551.072876	1447.231201	19617.265625	18959.638672	96.380707
551.418640	1601.966675	19628.642578	18686.576172	94.774040
551.764282	1501.843750	19362.406250	18206.441406	93.527840
552.109863	1467.710938	19100.720703	18368.003906	95.844627
552.455505	1467.710938	19289.589844	18479.503906	95.454544
552.801025	1438.129150	19264.558594	18677.474609	96.706665
553.146545	1545.078613	19662.775391	19198.568359	97.437828
553.491943	1442.680176	20054.164063	19476.181641	96.894485
553.837341	1506.394775	19872.123047	19296.416016	96.865318
554.182800	1413.098389	19949.490234	19168.986328	95.789345
554.528015	1435.853638	19628.642578	18602.382813	94.358978
554.873352	1529.150024	19394.263672	18718.433594	96.217041
555.218628	1529.150024	18920.955078	18390.759766	96.951462
555.563721	1526.874512	18836.761719	17919.726563	94.702248
555.908875	1479.088501	18233.748047	17621.632813	96.346588
556.254028	1549.629639	18083.564453	17582.949219	96.972191
556.599121	1488.190552	17769.541016	17398.632813	97.721886
556.944031	1438.129150	17876.492188	16932.150391	94.255257
557.289063	1556.456177	17760.439453	16934.425781	94.902405
557.633972	1458.608887	17594.326172	16750.109375	94.768021
557.978882	1413.098389	17430.490234	16704.597656	95.468094
558.323792	1449.506714	17369.050781	16388.300781	93.839333
558.668518	1522.323364	17282.580078	16645.435547	95.957268
559.013306	1495.017212	17095.988281	16609.025391	96.878639
559.358032	1476.812988	17191.560547	16486.148438	95.511147
559.702637	1501.843750	16989.039063	16242.667969	95.180725
560.047363	1522.323364	16743.281250	16461.117188	98.146210
560.391846	1469.986450	16923.048828	16356.443359	96.333374
560.736450	1476.812988	17002.691406	16110.687500	94.254730
561.080933	1435.853638	17009.517578	16310.933594	95.514328
561.425354	1481.364014	17148.324219	16722.802734	97.283958
561.769775	1479.088501	17121.017578	16506.626953	96.072159
562.114136	1465.435425	17312.162109	16847.955078	97.070641
562.458496	1433.578125	17221.140625	16269.973633	93.975212
562.802673	1476.812988	17159.703125	16524.832031	95.951820
563.146912	1440.404663	17503.306641	16693.220703	94.956787
563.491150	1476.812988	17105.089844	16463.392578	95.893997
563.835266	1490.466064	16984.486328	16247.218750	95.241600
564.179443	1485.915039	16959.457031	16356.443359	96.102936
564.523438	1510.945801	17157.427734	16367.821289	94.953453
564.867493	1540.527588	17225.693359	16447.464844	95.038445
565.211426	1506.394775	17166.529297	16681.843750	96.904968
565.555359	1444.955688	17648.939453	16593.097656	93.484062
565.899231	1467.710938	17562.468750	17275.753906	98.218582
566.243042	1449.506714	17883.318359	17523.785156	97.812225
566.586914	1401.720825	18861.791016	17744.511719	93.600945
566.930603	1456.333252	19014.251953	18220.095703	95.476936
567.274292	1426.751587	19143.957031	18543.218750	96.609291
567.617981	1456.333252	19330.548828	18622.861328	96.040733
567.961609	1413.098389	18973.292969	18229.197266	95.762604
568.305237	1442.680176	18661.546875	18076.736328	96.603661
568.648682	1458.608887	18454.474609	17778.644531	96.023560
568.992188	1415.373901	18406.687500	17564.744141	95.044853
569.335632	1495.017212	17871.939453	17271.203125	96.331810
569.679016	1476.812988	17760.439453	17512.408203	98.476807
570.022461	1497.292725	17837.806641	17107.365234	95.529877
570.365662	1463.159912	17853.736328	17380.427734	97.112312
570.708984	1497.292725	17598.876953	17496.478516	99.364044
571.052185	1406.271851	17790.021484	17271.203125	96.833336
571.395386	1476.812988	17744.511719	17557.917969	98.852982
571.738525	1442.680176	18276.982422	17692.173828	96.526093
572.081604	1567.833862	18502.259766	18140.451172	97.863472
572.424683	1415.373901	18825.382813	18661.546875	99.058952
572.767578	1415.373901	19184.916016	18713.882813	97.349213
573.110596	1485.915039	19403.365234	18679.750000	95.961403
573.453552	1463.159912	18973.292969	18961.914063	99.935013
573.796387	1495.017212	19271.384766	18468.126953	95.481316
574.139282	1495.017212	18816.281250	18600.107422	98.751976
574.481995	1392.618774	18600.107422	18595.556641	99.973557
574.824768	1465.435425	18327.044922	18320.218750	99.959518
575.167480	1433.578125	18823.107422	18354.351563	97.304382
575.510132	1451.782227	18311.115234	17958.410156	97.907967
575.852722	1490.466064	18661.546875	18074.460938	96.580963
576.195251	1454.057739	18113.146484	17992.542969	99.276047
576.537842	1488.190552	18463.576172	17578.398438	94.785530
576.880188	1524.598877	17837.806641	17660.316406	98.911987
577.222717	1538.252075	17539.714844	17191.560547	97.824234
577.565063	1531.425537	17123.294922	16975.384766	99.051361
577.907410	1497.292725	17057.304688	16631.781250	97.265274
578.249756	1522.323364	16572.617188	16497.525391	99.501060
578.591919	1495.017212	16411.056641	15985.533203	97.147209
578.934204	1533.701050	15969.605469	15714.747070	98.234550
579.276306	1485.915039	15628.277344	15503.123047	99.115036
579.618469	1565.558350	15332.458984	15022.988281	97.752068
579.960571	1438.129150	15491.746094	15048.019531	96.842613
580.302551	1458.608887	14904.661133	14813.640625	99.323059
580.644531	1499.568237	14895.559570	14704.415039	98.573120
580.986511	1419.924927	14567.883789	14281.168945	97.819321
581.328369	1394.894287	14497.342773	14247.036133	98.089622
581.670227	1490.466064	14570.160156	14185.596680	97.059845
582.012024	1492.741699	14365.363281	14240.208984	99.027748
582.353821	1524.598877	14149.188477	13971.697266	98.594086
582.695496	1495.017212	14121.881836	14078.647461	99.657600
583.037231	1488.190552	14429.077148	13869.298828	95.674347
583.378845	1469.986450	14438.179688	14026.310547	96.824005
583.720398	1501.843750	14014.932617	13632.645508	96.944901
584.062012	1588.313477	13780.553711	13755.523438	99.794701
584.403442	1483.639526	13962.595703	13741.870117	98.231216
584.744934	1433.578125	13960.320313	13821.513672	98.891914
585.086365	1465.435425	13989.902344	13603.063477	96.911331
585.427734	1488.190552	13983.075195	13430.124023	95.574577
585.768982	1451.782227	13805.584961	13500.665039	97.531776
586.110291	1472.261963	13559.828125	13425.572266	98.889305
586.451599	1547.354126	13562.103516	13386.888672	98.541672
586.792725	1545.078613	13609.889648	13348.205078	97.831017
587.133850	1476.812988	13482.460938	13434.674805	99.601959
587.474915	1449.506714	13785.105469	13302.694336	96.089279
587.815979	1433.578125	13728.216797	13238.980469	96.020737
588.157043	1492.741699	13694.083984	13584.859375	99.104813
588.497925	1465.435425	14001.279297	13416.470703	95.334908
588.838867	1483.639526	13482.460938	13502.940430	100.170677
589.179749	1517.772339	13721.390625	13555.277344	98.638817
589.520569	1463.159912	13996.728516	13416.470703	95.370369
589.861450	1451.782227	14037.687500	13912.534180	99.005608
590.202087	1472.261963	13999.003906	13687.257813	97.511353
590.542847	1524.598877	14160.566406	14181.045898	100.162071
590.883484	1479.088501	14194.699219	13958.044922	98.138870
591.224121	1472.261963	14356.260742	13810.135742	95.761215
591.564636	1547.354126	14251.586914	13919.360352	97.384911
591.905151	1517.772339	14217.454102	13871.575195	97.276474
592.245667	1458.608887	13989.902344	13598.512695	96.876709
592.585999	1531.425537	13823.789063	13732.767578	99.259529
592.926453	1415.373901	13926.187500	13393.715820	95.743912
593.266724	1497.292725	13871.575195	13459.705078	96.671562
593.607056	1524.598877	13810.135742	13291.317383	95.777000
593.947388	1465.435425	13823.789063	13361.858398	96.262199
594.287476	1403.996338	13755.523438	13477.910156	97.752396
594.627686	1431.302612	14062.718750	13819.238281	98.072418
594.967773	1515.496826	14194.699219	13821.513672	97.056709
595.307861	1456.333252	14033.136719	14014.932617	99.855255
595.647888	1467.710938	14360.811523	13887.503906	96.328987
595.987854	1499.568237	14590.639648	13980.799805	95.341560
596.327820	1401.720825	14499.618164	14269.791016	98.245316
596.667725	1474.537476	14931.967773	14745.375000	98.613457
597.007568	1474.537476	15114.008789	15002.508789	99.182518
597.347351	1488.190552	16033.319336	15421.204102	95.791611
597.687073	1454.057739	16299.555664	15769.359375	96.428574
598.026794	1488.190552	16297.280273	15814.869141	96.742470
598.366455	1476.812988	16083.380859	15887.686523	98.660225
598.706116	1442.680176	15678.337891	15095.804688	95.907928
599.045654	1435.853638	15271.020508	14904.661133	97.351967
599.385193	1460.884399	14788.609375	14224.280273	95.765747
599.724731	1467.710938	14695.313477	13928.462891	94.202652
600.064087	1417.649414	14026.310547	13648.574219	97.004150
600.403564	1513.221313	13694.083984	13295.868164	96.730804
600.742920	1497.292725	13377.787109	13311.796875	99.444550
601.082153	1456.333252	13225.327148	12988.672852	97.989174
601.421387	1413.098389	13186.642578	12690.579102	95.786629
601.760620	1426.751587	13066.040039	12897.652344	98.553284
602.099854	1483.639526	13441.500977	12922.682617	95.661278
602.438843	1447.231201	13125.204102	12588.180664	95.401398
602.778015	1504.119263	13348.205078	12763.396484	95.062439
603.117065	1497.292725	13673.604492	13325.450195	97.140724
603.456055	1435.853638	13814.686523	13075.142578	94.025742
603.794983	1454.057739	14242.484375	13541.624023	94.519577
604.133850	1506.394775	14645.251953	14124.157227	96.033943
604.472778	1488.190552	14891.007813	14445.005859	96.672325
604.811584	1454.057739	15478.092773	14963.825195	96.332954
605.150330	1469.986450	16115.238281	15036.641602	92.635178
605.489075	1540.527588	16504.351563	15616.899414	94.069351
605.827698	1476.812988	16269.973633	15780.736328	96.692818
606.166382	1415.373901	16358.718750	15817.145508	96.375824
606.504883	1465.435425	15855.829102	15136.764648	95.003166
606.843445	1463.159912	15587.317383	15020.712891	95.988403
607.181946	1429.027100	15036.641602	14445.005859	95.652168
607.520386	1465.435425	14763.579102	14060.443359	94.712524
607.858826	1472.261963	14069.544922	13534.797852	95.755058
608.197083	1460.884399	13885.227539	13416.470703	96.227112
608.535461	1435.853638	13898.880859	13100.172852	93.591377
608.873718	1440.404663	13568.930664	13150.234375	96.547836
609.211914	1488.190552	13491.562500	13361.858398	98.919434
609.550171	1504.119263	14044.514648	13345.929688	94.429321
609.888245	1469.986450	14385.842773	13766.900391	95.207886
610.226318	1488.190552	14738.547852	14181.045898	95.792549
610.564392	1454.057739	14697.588867	14331.230469	97.233681
610.902344	1549.629639	14836.395508	13994.453125	93.663300
611.240295	1506.394775	14326.678711	14064.994141	97.958824
611.578247	1479.088501	14272.066406	13896.605469	97.065102
611.916138	1570.109375	14226.555664	13571.206055	94.822006
612.253845	1463.159912	13716.839844	13159.336914	95.450325
612.591675	1517.772339	13416.470703	12779.325195	94.645248
612.929382	1547.354126	13184.367188	12783.875977	96.558472
613.267090	1479.088501	12959.090820	12296.914063	94.231911
613.604736	1524.598877	12749.743164	12130.801758	94.486115
613.942261	1463.159912	12417.516602	11932.831055	95.575409
614.279785	1426.751587	12481.231445	11841.810547	94.215729
614.617310	1365.312500	12103.495117	11823.606445	97.393517
614.954712	1506.394775	12010.199219	11684.798828	96.902069
615.292175	1492.741699	11869.116211	11363.951172	95.131577
615.629517	1440.404663	11898.698242	11473.175781	95.931244
615.966797	1515.496826	11682.523438	11206.940430	95.322296
616.304138	1460.884399	11732.584961	11222.868164	95.037659
616.641296	1526.874512	11928.280273	11359.399414	94.530731
616.978516	1561.007324	11650.666016	11434.492188	97.857468
617.315552	1524.598877	11634.738281	11268.378906	96.376320
617.652771	1456.333252	11860.014648	11366.226563	95.253716
617.989685	1551.905151	11507.308594	11270.654297	97.622856
618.326721	1520.047852	11782.646484	11450.420898	96.762756
618.663696	1526.874512	11823.606445	11329.818359	95.204407
619.000549	1463.159912	12078.464844	11409.460938	93.697739
619.337463	1490.466064	11996.545898	11309.338867	93.458961
619.674194	1467.710938	11750.789063	11379.879883	96.393013
620.010986	1408.547363	11712.105469	11304.787109	96.046822
620.347778	1540.527588	11543.716797	11216.041992	96.724297
620.684387	1485.915039	11518.686523	11147.776367	96.303017
621.020996	1451.782227	11300.236328	11238.796875	99.376152
621.357605	1495.017212	11643.839844	11216.041992	95.784752
621.694214	1444.955688	11270.654297	10917.949219	96.410385
622.030579	1526.874512	11327.542969	10872.438477	95.356400
622.367065	1463.159912	11363.951172	10883.816406	95.150543
622.703430	1481.364014	11238.796875	10890.642578	96.431908
623.039795	1472.261963	11318.440430	10656.263672	93.274788
623.376160	1438.129150	11266.103516	10765.489258	94.906235
623.712402	1479.088501	11154.602539	10704.049805	95.343369
624.048645	1465.435425	11268.378906	10826.927734	95.496750
624.384766	1458.608887	11177.358398	10729.081055	95.387497
624.720886	1451.782227	11206.940430	10779.141602	95.614639
625.057007	1454.057739	11052.204102	10783.693359	97.202477
625.392944	1451.782227	11147.776367	10799.622070	96.409294
625.729004	1431.302612	11079.510742	10765.489258	96.745285
626.064941	1444.955688	11359.399414	10854.234375	94.904755
626.400818	1454.057739	11825.881836	11011.245117	92.145676
626.736633	1472.261963	11723.483398	11425.389648	97.092117
627.072449	1540.527588	12187.689453	11427.665039	92.861717
627.408264	1472.261963	12071.637695	11771.269531	97.166168
627.743896	1465.435425	12321.945313	11743.962891	94.676170
628.079590	1435.853638	12337.874023	11718.931641	94.322685
628.415161	1456.333252	12242.301758	11632.461914	94.345985
628.750793	1454.057739	12053.433594	11527.788086	95.040787
629.086365	1472.261963	12073.913086	11436.767578	93.990128
629.421753	1460.884399	11814.503906	11309.338867	95.120888
629.757263	1388.067749	11632.461914	11181.909180	95.601959
630.092651	1497.292725	11370.777344	11193.287109	98.202354
630.427917	1520.047852	11070.409180	10949.805664	98.737183
630.763184	1413.098389	11034.000000	10694.948242	96.475883
631.098511	1479.088501	11193.287109	10706.325195	94.987114
631.433716	1520.047852	10824.652344	10519.732422	96.722916
631.768799	1419.924927	10694.948242	10185.231445	94.504417
632.103943	1524.598877	10658.539063	10226.190430	95.266571
632.438965	1451.782227	10585.722656	10167.027344	95.416046
632.773987	1488.190552	10644.886719	10130.618164	94.383690
633.109070	1433.578125	10396.854492	10258.047852	98.451385
633.443848	1378.965576	10490.151367	9955.403320	94.130859
633.778870	1399.445313	10501.528320	9875.760742	93.125008
634.113708	1481.364014	10599.375977	9959.954102	92.987267
634.448425	1481.364014	10456.018555	10076.005859	95.765709
634.783264	1447.231201	10483.324219	10096.485352	95.718956
635.117859	1467.710938	10460.569336	10028.219727	95.192299
635.452576	1413.098389	10364.997070	10085.108398	96.873413
635.787170	1383.516602	10278.527344	10005.464844	96.930161
636.121704	1449.506714	10176.128906	9918.995117	97.053459
636.456177	1410.822876	10456.018555	9930.373047	94.188675
636.790588	1467.710938	10101.037109	9732.402344	95.730095
637.125122	1458.608887	9957.678711	9516.227539	94.805885
637.459412	1454.057739	9800.667969	9630.003906	97.955292
637.793762	1433.578125	9714.198242	9429.757813	96.564987
638.128052	1504.119263	9607.249023	9204.481445	95.029480
638.462280	1469.986450	9791.566406	9122.562500	91.960617
638.796509	1488.190552	9554.912109	9204.481445	95.655846
639.130615	1490.466064	9739.229492	9052.021484	91.668961
639.464722	1447.231201	9236.338867	8883.632813	95.471802
639.798767	1490.466064	9238.614258	9015.613281	97.121880
640.132751	1513.221313	9325.083984	8842.673828	93.824646
640.466736	1435.853638	9222.685547	9026.991211	97.486855
640.800598	1474.537476	9108.910156	8690.213867	94.515640
641.134521	1520.047852	8869.980469	8699.316406	97.678017
641.468262	1465.435425	8965.551758	8660.631836	95.934464
641.802063	1399.445313	8833.571289	8674.285156	97.857368
642.135803	1531.425537	8881.357422	8546.856445	95.448921
642.469421	1433.578125	8619.672852	8651.530273	100.443321
642.803101	1454.057739	8831.295898	8489.967773	95.373230
643.136658	1497.292725	8790.336914	8546.856445	96.661469
643.470215	1538.252075	8692.489258	8248.762695	93.797707
643.803711	1413.098389	8788.061523	8437.630859	95.248375
644.137085	1447.231201	8635.601563	8535.478516	98.607155
644.470581	1535.976563	8738.000000	8451.284180	96.018951
644.803833	1463.159912	8565.060547	8280.620117	95.994865
645.137207	1501.843750	8672.009766	8287.446289	94.636620
645.470459	1431.302612	8596.917969	8228.283203	94.855507
645.803589	1469.986450	8408.049805	8189.599121	96.851418
646.136780	1467.710938	8553.682617	8262.416016	95.889534
646.469849	1417.649414	8583.264648	8355.711914	96.824379
646.802979	1465.435425	8603.744141	8271.518555	95.345879
647.135986	1415.373901	8706.142578	8285.170898	94.225960
647.468994	1410.822876	8665.183594	8237.385742	94.102890
647.801941	1501.843750	8665.183594	8362.539063	95.775093
648.134766	1476.812988	8699.316406	8219.180664	93.352226
648.467651	1472.261963	8869.980469	8367.089844	93.202087
648.800354	1501.843750	8631.050781	8414.875977	96.967758
649.133179	1481.364014	8494.519531	8262.416016	96.690453
649.465881	1454.057739	8555.958008	8310.202148	96.539574
649.798462	1460.884399	8788.061523	8264.691406	92.857140
650.131104	1426.751587	8487.692383	8196.425781	95.874962
650.463623	1467.710938	8672.009766	8196.425781	93.398605
650.796143	1474.537476	8612.846680	8221.457031	94.517052
651.128662	1485.915039	8699.316406	8396.671875	95.804413
651.461060	1456.333252	8619.672852	8328.406250	95.933929
651.793396	1535.976563	8756.204102	8269.242188	93.255585
652.125732	1476.812988	8576.437500	8228.283203	95.096161
652.458008	1495.017212	8646.979492	8317.028320	95.386566
652.790222	1440.404663	8751.653320	8408.049805	95.300346
653.122437	1444.955688	8681.112305	8337.507813	95.251564
653.454529	1401.720825	8612.846680	8264.691406	95.171974
653.786621	1415.373901	8621.948242	8166.844238	93.684875
654.118713	1513.221313	8512.723633	8121.333984	94.408325
654.450623	1417.649414	8467.212891	8216.905273	96.449318
654.782654	1415.373901	8549.131836	8321.579102	96.810196
655.114502	1447.231201	8451.284180	8071.272461	94.574402
655.446350	1458.608887	8430.804688	7957.496094	93.211487
655.778198	1524.598877	8383.018555	8064.445801	95.355003
656.109863	1542.803101	8084.925293	7850.546875	96.417397
656.441650	1451.782227	8248.762695	8080.374512	97.522606
656.773254	1417.649414	8253.313477	7880.128418	94.540619
657.104919	1497.292725	8262.416016	7950.669922	95.391861
657.436462	1563.282837	8216.905273	7657.127441	91.586868
657.767944	1529.150024	8207.803711	7871.026367	94.957405
658.099548	1469.986450	8285.170898	7987.078125	95.626053
658.430908	1424.476074	8280.620117	8009.833008	96.050446
658.762268	1517.772339	8458.110352	8210.079102	96.426239
659.093628	1485.915039	8551.407227	8414.875977	98.067635
659.424927	1485.915039	8954.174805	8601.468750	95.277267
659.756226	1435.853638	9049.746094	8676.560547	95.098625
660.087341	1392.618774	9472.993164	9118.011719	95.606873
660.418518	1463.159912	9527.605469	9243.165039	96.472908
660.749573	1504.119263	9598.146484	9290.951172	96.204666
661.080627	1524.598877	9559.462891	9238.614258	96.006798
661.411621	1444.955688	9238.614258	9013.337891	97.109489
661.742554	1515.496826	9320.533203	9056.573242	96.618080
662.073547	1460.884399	9079.328125	8594.641602	93.637985
662.404297	1449.506714	8910.939453	8446.733398	93.778595
662.735229	1504.119263	8778.958984	8378.467773	94.494843
663.065979	1481.364014	8626.499023	8401.222656	96.847137
663.396667	1488.190552	8449.008789	8064.445801	94.475319
663.727417	1449.506714	8043.965820	7934.741211	98.343689
664.057922	1499.568237	8066.721191	7682.158203	94.144142
664.388611	1451.782227	7973.424805	7541.076172	93.370560
664.719116	1501.843750	7982.526855	7657.127441	94.978935
665.049622	1497.292725	7927.914551	7622.994629	95.258316
665.380005	1529.150024	7702.637695	7502.392090	96.756363
665.710388	1542.803101	7757.250488	7297.595215	92.603439
666.040771	1551.905151	7522.871582	7206.574219	94.702744
666.371033	1429.027100	7595.688477	7481.912598	98.154991
666.701294	1520.047852	7657.127441	7320.350586	94.512428
667.031555	1444.955688	7472.810547	7140.584473	94.488487
667.361633	1490.466064	7670.780762	7411.371094	95.802650
667.691772	1463.159912	7529.698242	7388.616211	97.674423
668.021790	1504.119263	7484.187988	7220.227539	95.585999
668.351807	1495.017212	7632.096680	7197.472168	92.918053
668.681763	1522.323364	7513.769531	7195.196777	94.682877
669.011719	1465.435425	7497.840820	7279.391113	96.378731
669.341614	1449.506714	7734.495117	7368.136230	94.170891
669.671387	1490.466064	7673.056152	7208.850098	92.491722
670.001221	1476.812988	7600.239258	7468.259277	97.844673
670.330933	1501.843750	7643.474609	7395.442383	95.961456
670.660583	1401.720825	7506.943359	7283.941895	96.347366
670.990173	1463.159912	7661.678711	7281.666504	93.869316
671.319763	1495.017212	7561.555664	7174.717285	93.623405
671.649292	1501.843750	7454.605957	7174.717285	95.298172
671.978821	1506.394775	7393.166992	7186.094727	96.482414
672.308289	1454.057739	7363.585449	7095.073730	95.456291
672.637695	1417.649414	7525.147461	7129.206543	93.517136
672.966980	1390.343262	7336.279297	7008.604004	94.489090
673.296326	1501.843750	7281.666504	7156.512695	97.834641
673.625610	1483.639526	7090.522949	7015.430664	98.660713
673.954773	1465.435425	7181.543457	6865.246094	94.466560
674.283936	1458.608887	7145.135254	6919.858887	96.038422
674.613037	1449.506714	7252.084961	6899.378906	93.921562
674.942078	1447.231201	7008.604004	6742.368164	95.212761
675.271118	1460.884399	7033.634766	6787.878418	95.590034
675.600098	1522.323364	7013.155273	6822.011230	96.518852
675.928955	1497.292725	6922.134277	6796.980469	97.692940
676.257813	1499.568237	6903.930176	6815.184570	98.357887
676.586670	1469.986450	6953.991699	6658.173828	94.605804
676.915466	1488.190552	7070.042969	6783.327637	94.863441
677.244141	1426.751587	7111.002441	6667.275879	92.193756
677.572876	1472.261963	7010.879395	6837.939941	96.877571
677.901489	1458.608887	6981.297852	6726.439453	95.385246
678.230042	1460.884399	7031.359375	6708.235352	94.199348
678.558594	1435.853638	6924.409668	6712.786133	96.144279
678.887085	1499.568237	6974.471191	6635.418457	93.807144
679.215515	1463.159912	7031.359375	6926.685547	98.120148
679.543945	1479.088501	7076.869629	6776.500977	94.634148
679.872253	1506.394775	7204.298828	6947.165039	95.487221
680.200562	1479.088501	7258.911133	7070.042969	96.732285
680.528809	1440.404663	7299.870605	6913.032227	93.398064
680.856995	1501.843750	7493.290039	7238.431641	95.746292
681.185120	1454.057739	7584.311035	7491.014648	98.478096
681.513306	1476.812988	7627.545898	7288.493164	94.487602
681.841309	1501.843750	7595.688477	7495.565430	98.356979
682.169373	1510.945801	7568.382324	7356.758789	96.506386
682.497314	1495.017212	7663.954102	7340.830078	94.762077
682.825134	1510.945801	7361.309570	7247.533691	98.055237
683.153076	1517.772339	7520.596191	7313.523926	96.550423
683.480896	1531.425537	7479.636719	6913.032227	90.474373
683.808655	1369.863525	7293.043945	7040.461426	95.735687
684.136414	1449.506714	7199.748047	6953.991699	95.726158
684.464050	1429.027100	7240.707031	6983.573242	95.575569
684.791626	1485.915039	7195.196777	6794.705078	92.985252
685.119263	1456.333252	6915.307617	6865.246094	99.082947
685.446838	1467.710938	6790.154297	6614.938965	96.707993
685.774292	1447.231201	6803.807129	6569.428711	95.624466
686.101685	1413.098389	6687.755859	6533.020020	97.066437
686.429077	1476.812988	6669.551270	6526.193848	97.239273
686.756348	1474.537476	6671.827148	6521.642578	97.110329
687.083679	1438.129150	6389.662598	6259.957520	97.380508
687.410950	1529.150024	6610.387695	6385.111328	95.566505
687.738159	1435.853638	6660.449219	6551.224609	97.909416
688.065308	1449.506714	6696.857910	6437.448242	95.056366
688.392395	1401.720825	6710.510742	6412.417480	94.384911
688.719421	1474.537476	6847.041992	6573.979492	94.917404
689.046448	1531.425537	6617.214355	6451.101563	96.733772
689.373413	1533.701050	6844.766602	6391.937988	91.473862
689.700317	1531.425537	6708.235352	6471.581055	95.428566
690.027100	1472.261963	6658.173828	6337.325195	93.813072
690.353943	1490.466064	6558.050781	6396.488770	96.811844
690.680725	1465.435425	6514.815918	6246.304688	94.682297
691.007446	1526.874512	6489.785156	6178.039063	93.718483
691.334106	1465.435425	6278.162109	6059.711914	95.460991
691.660645	1444.955688	6223.549316	5916.354004	93.571426
691.987244	1499.568237	6273.610840	5984.619629	93.946617
692.313721	1419.924927	6193.967773	5914.078613	94.137268
692.640259	1549.629639	6148.457031	5966.415527	96.041580
692.966675	1538.252075	6041.507813	5834.435547	95.401718
693.293030	1497.292725	5975.517578	5782.098145	95.680901
693.619324	1522.323364	6018.752441	5766.169922	94.382599
693.945618	1517.772339	5975.517578	5693.353027	93.670242
694.271851	1460.884399	5852.639648	5586.403809	93.937828
694.598083	1515.496826	5718.383789	5779.822754	101.461838
694.924194	1460.884399	5652.393555	5527.240234	97.014122
695.250244	1433.578125	5809.404785	5691.077637	97.295891
695.576294	1467.710938	5645.566895	5549.995117	97.712418
695.902283	1517.772339	5804.853516	5686.526367	97.239914
696.228210	1429.027100	5759.343262	5602.332031	96.374130
696.554138	1488.190552	5904.976563	5584.127930	92.735703
696.879944	1479.088501	5734.312500	5702.455078	99.251335
697.205750	1515.496826	5786.649414	5629.638672	96.323929
697.531433	1463.159912	5934.558105	5729.761230	95.419846
697.857178	1429.027100	6039.232422	5777.547363	94.323799
698.182739	1447.231201	6055.160645	5827.608887	95.061737
698.508423	1449.506714	6278.162109	6096.120117	96.229965
698.833984	1510.945801	6594.459473	6294.090332	94.091309
699.159485	1506.394775	6626.316406	6362.355957	94.844437
699.484924	1451.782227	6897.103516	6576.254883	94.107811
699.810303	1454.057739	7070.042969	6894.828125	96.880066
700.135681	1476.812988	7334.003418	7058.665527	95.299149
700.460999	1481.364014	7236.156250	7022.257324	96.283127
700.786255	1467.710938	7279.391113	6901.654785	93.500397
701.111450	1479.088501	7104.175781	6953.991699	97.330101
701.436646	1460.884399	6767.398926	6724.164063	99.185249
701.761719	1490.466064	6628.592285	6378.284668	95.128426
702.086792	1449.506714	6576.254883	6157.559082	91.833115
702.411865	1549.629639	6244.029297	6209.896484	99.272903
702.736816	1485.915039	6189.416504	5916.354004	94.194481
703.061646	1563.282837	6084.742676	5707.006348	91.645699
703.386536	1538.252075	5829.884277	5556.821777	93.637329
703.711365	1469.986450	5611.434082	5484.005371	96.923088
704.036194	1508.670288	5420.290527	5397.535156	99.418259
704.360901	1417.649414	5449.872559	5386.157715	98.419861
704.685547	1438.129150	5454.423340	5199.564941	93.654388
705.010132	1524.598877	5408.913086	5067.584961	91.212654
705.334717	1508.670288	5213.218262	5081.237793	96.437340
705.659302	1513.221313	5272.381836	4951.533203	91.464890
705.983765	1417.649414	5283.759277	5119.921875	95.762215
706.308228	1510.945801	5208.666992	5008.421387	94.584618
706.632568	1474.537476	5097.166504	5088.064453	99.748741
706.956909	1513.221313	5245.075684	5017.523438	93.902435
707.281189	1510.945801	5210.942871	5067.584961	96.125458
707.605408	1438.129150	5181.360840	4903.747559	92.583595
707.929626	1394.894287	5165.432129	4992.492676	95.413399
708.253784	1474.537476	5283.759277	4862.788086	88.948631
708.577820	1415.373901	5261.003906	4946.982422	91.834328
708.901855	1490.466064	5286.034668	5017.523438	92.925667
709.225830	1454.057739	5338.371582	5038.002930	92.267136
709.549805	1438.129150	5226.871094	5038.002930	95.015015
709.873718	1419.924927	5185.912109	4990.217285	94.803627
710.197510	1444.955688	5233.697754	5092.615723	96.276283
710.521362	1460.884399	5338.371582	5003.870117	91.373245
710.845093	1401.720825	5192.738281	5026.625488	95.618256
711.168701	1376.690063	5352.024902	5195.014160	96.050377
711.492432	1460.884399	5406.637207	5188.187500	94.463676
711.816040	1535.976563	5415.739746	5197.289551	94.369499
712.139587	1463.159912	5472.627441	5215.493652	93.586838
712.463074	1517.772339	5404.361816	5422.565918	100.468384
712.786499	1426.751587	5429.392578	5301.963379	96.816376
713.109924	1545.078613	5524.964355	5208.666992	92.052605
713.433350	1431.302612	5652.393555	5281.483887	91.212944
713.756592	1506.394775	5499.933594	5140.401367	90.997154
714.079834	1506.394775	5381.606934	5122.197266	93.305923
714.403015	1444.955688	5292.861328	5190.462891	97.338852
714.726196	1435.853638	5365.678223	5206.391602	95.946724
715.049255	1469.986450	5433.943848	5072.135742	90.872551
715.372375	1442.680176	5181.360840	4921.951660	93.061478
715.695435	1504.119263	5160.881348	5001.594727	95.644051
716.018311	1524.598877	5101.717773	5117.646484	100.445297
716.341248	1529.150024	5133.574707	4976.563965	95.643944
716.664063	1451.782227	5181.360840	5033.452148	96.034172
716.987000	1490.466064	5292.861328	5006.145996	92.459610
717.309692	1406.271851	5251.901855	5060.758301	95.029587
717.632385	1495.017212	5092.615723	4962.910645	96.394676
717.955078	1447.231201	5201.840332	4987.941406	94.303032
718.277649	1463.159912	4924.227051	4921.951660	99.934258
718.600220	1474.537476	4956.084473	4885.542969	97.973846
718.922791	1460.884399	4919.675781	4676.195313	92.960533
719.245300	1499.568237	4851.410156	4737.634277	96.605568
719.567688	1467.710938	4805.899902	4644.337891	95.160187
719.890015	1551.905151	4758.113770	4546.490723	93.399582
720.212341	1515.496826	4703.501465	4478.225098	92.933624
720.534607	1485.915039	4576.072266	4419.061523	94.919006
720.856873	1469.986450	4610.205078	4366.724609	92.246384
721.179016	1545.078613	4564.694824	4366.724609	93.443863
721.501160	1463.159912	4453.194336	4316.663086	95.433792
721.823242	1467.710938	4441.816406	4205.162598	92.042854
722.145264	1372.139038	4500.979980	4264.326172	92.436371
722.467224	1483.639526	4507.806641	4202.886719	89.917229
722.789185	1508.670288	4400.857422	4214.264648	93.548386
723.111023	1481.364014	4357.622559	4089.110840	90.664551
723.432861	1447.231201	4225.642090	4182.407227	98.443901
723.754578	1467.710938	4307.561035	4159.651855	94.791656
724.076294	1479.088501	4202.886719	4175.580566	98.997498
724.397949	1451.782227	4346.244629	4184.682617	94.418236
724.719666	1501.843750	4157.376465	4225.642090	102.570694
725.041260	1497.292725	4250.672852	4070.906738	93.471077
725.362732	1447.231201	4298.458984	4157.376465	95.051865
725.684265	1492.741699	4375.826660	4125.519043	91.318062
726.005676	1438.129150	4341.693848	4084.559814	91.144196
726.327087	1444.955688	4357.622559	4248.397461	96.250000
726.648438	1469.986450	4396.306152	4246.121582	94.867798
726.969666	1458.608887	4375.826660	4282.530273	96.801872
727.290894	1417.649414	4444.092285	4189.233887	91.578949
727.612061	1524.598877	4446.367676	4111.866211	88.551407
727.933228	1419.924927	4434.990234	4111.866211	89.283020
728.254395	1501.843750	4455.469727	4237.019531	92.603996
728.575378	1488.190552	4541.939453	4366.724609	94.262306
728.896301	1449.506714	4566.970215	4277.979004	90.729927
729.217285	1451.782227	4412.234863	4389.479492	99.231354
729.538147	1476.812988	4576.072266	4503.255859	97.650520
729.858948	1417.649414	4626.133789	4305.285156	89.999992
730.179810	1483.639526	4642.062500	4403.132813	92.435158
730.500549	1522.323364	4521.459961	4371.275391	94.992409
730.821228	1479.088501	4535.112793	4303.009766	92.405067
731.141846	1435.853638	4453.194336	4439.541016	99.547508
731.462402	1424.476074	4510.082031	4289.356934	92.846619
731.782898	1517.772339	4500.979980	4419.061523	97.254013
732.103455	1467.710938	4503.255859	4325.765137	94.152924
732.423889	1444.955688	4507.806641	4432.714355	97.548286
732.744263	1347.108276	4657.991211	4462.296387	94.089348
733.064636	1517.772339	4601.103027	4380.377441	92.841324
733.384888	1454.057739	4573.796875	4678.470703	103.355209
733.705200	1449.506714	4571.521484	4521.459961	98.396500
734.025330	1472.261963	4612.480469	4453.194336	94.927544
734.345520	1440.404663	4585.174316	4466.847168	96.237335
734.665527	1463.159912	4648.889160	4469.123047	94.357147
734.985596	1533.701050	4612.480469	4409.959473	93.422035
735.305542	1460.884399	4494.153809	4375.826660	96.099022
735.625549	1442.680176	4441.816406	4343.969238	96.737488
735.945435	1413.098389	4353.071289	4298.458984	98.142418
736.265259	1429.027100	4423.612305	4221.091309	93.237091
736.585083	1479.088501	4205.162598	4296.183105	103.338882
736.904785	1531.425537	4280.254395	4218.815430	97.764900
737.224426	1397.169800	4116.416992	4114.141602	99.916321
737.544128	1492.741699	4036.773926	4039.049316	100.089439
737.863708	1488.190552	4150.549805	3954.855225	92.649574
738.183289	1469.986450	4148.274414	3973.059326	93.457939
738.502808	1444.955688	4266.601563	4127.794922	95.080650
738.822205	1481.364014	4180.131836	3966.232666	92.074188
739.141541	1442.680176	4218.815430	4102.764160	95.819679
739.460938	1490.466064	4316.663086	4114.141602	92.834137
739.780212	1442.680176	4166.478516	4177.855957	100.417702
740.099426	1545.078613	4191.509277	4164.203125	98.968193
740.418640	1469.986450	4380.377441	4189.233887	93.432373
740.737793	1460.884399	4362.173340	4241.570801	95.843140
741.056885	1476.812988	4259.774902	4164.203125	96.565826
741.375977	1497.292725	4303.009766	4077.733398	91.970810
741.694946	1504.119263	4216.540039	4039.049316	93.456375
742.013855	1460.884399	4282.530273	4118.692871	94.193550
742.332703	1467.710938	4102.764160	4073.182129	98.877365
742.651550	1460.884399	4100.488281	4029.947266	97.327591
742.970398	1458.608887	3993.539063	3909.344727	96.678635
743.289124	1495.017212	4057.253662	4009.467773	98.135002
743.607788	1374.414551	3968.508301	4009.467773	101.578949
743.926453	1435.853638	4064.080078	3845.630127	91.688301
744.245056	1424.476074	3957.130615	3868.385254	96.495956
744.563599	1449.506714	4077.733398	3806.946289	89.696968
744.882141	1467.710938	3961.681641	3897.967041	97.445251
745.200500	1454.057739	3925.273438	3690.894775	90.515640
745.518860	1483.639526	3909.344727	3736.405273	92.870552
745.837219	1419.924927	3973.059326	3754.609375	91.443863
746.155518	1510.945801	3929.824463	3863.834229	97.271866
746.473755	1440.404663	3802.395264	3738.680664	97.302490
746.791992	1490.466064	3845.630127	3704.547852	94.009659
747.110107	1394.894287	3797.844238	3709.098877	96.306816
747.428162	1476.812988	3929.824463	3706.823486	90.909096
747.746216	1529.150024	3838.803711	3627.180176	90.837433
748.064148	1442.680176	3604.425049	3629.455566	101.157883
748.382080	1403.996338	3759.160400	3754.609375	99.806763
748.700073	1497.292725	3786.466553	3711.374512	96.719688
749.017822	1479.088501	3831.977051	3693.170166	94.100563
749.335632	1488.190552	3859.283203	3711.374512	93.762001
749.653320	1492.741699	3734.129639	3731.854004	99.898476
749.971008	1456.333252	3795.568604	3834.252441	101.653694
750.288696	1394.894287	3875.211914	3706.823486	93.211014
750.606262	1492.741699	3747.782715	3729.578613	99.192734
750.923828	1488.190552	3786.466553	3672.690674	95.049515
751.241272	1456.333252	3806.946289	3713.649902	96.030975
751.558716	1417.649414	3822.875000	3681.792725	94.134346
751.876038	1497.292725	3872.936523	3725.027588	93.773941
752.193481	1506.394775	3722.751953	3679.517090	98.049286
752.510681	1465.435425	3756.884766	3624.904541	94.240326
752.827942	1417.649414	3768.262451	3554.363525	90.900291
753.145081	1433.578125	3843.354736	3622.629150	90.840416
753.462219	1515.496826	3677.241699	3604.425049	96.631577
753.779297	1479.088501	3665.864014	3681.792725	100.728409
754.096375	1454.057739	3672.690674	3652.210938	99.076935
754.413330	1467.710938	3759.160400	3611.251465	93.545181
754.730286	1460.884399	3891.140625	3634.006836	89.419479
755.047119	1497.292725	3704.547852	3581.669678	94.432991
755.363892	1454.057739	3788.742188	3634.006836	93.372322
755.680725	1456.333252	3634.006836	3563.465576	96.760704
755.997498	1492.741699	3697.721191	3590.771729	95.149635
756.314148	1492.741699	3690.894775	3565.741211	94.306419
756.630737	1531.425537	3618.078125	3524.781738	95.528900
756.947327	1463.159912	3622.629150	3583.945313	98.208641
757.263855	1492.741699	3552.087891	3583.945313	101.546967
757.580261	1476.812988	3750.058350	3608.976074	93.793793
757.896729	1495.017212	3645.384277	3479.271240	92.275124
758.213074	1454.057739	3611.251465	3451.965088	92.616035
758.529419	1504.119263	3731.854004	3502.026611	89.683357
758.845642	1463.159912	3729.578613	3497.475586	89.759041
759.161865	1435.853638	3652.210938	3552.087891	95.482544
759.478149	1463.159912	3781.915527	3665.864014	94.995094
759.794189	1472.261963	3743.231689	3549.812500	91.482971
760.110229	1440.404663	3863.834229	3629.455566	90.328629
760.426270	1549.629639	3813.772949	3679.517090	94.070343
760.742249	1433.578125	3699.996826	3586.220703	94.979919
761.058105	1454.057739	3800.119629	3636.282227	93.016495
761.374023	1469.986450	3720.476563	3772.813477	102.325577
761.689819	1456.333252	3797.844238	3613.527100	92.128281
762.005554	1440.404663	3643.108887	3699.996826	102.582649
762.321289	1540.527588	3711.374512	3699.996826	99.475883
762.636902	1440.404663	3875.211914	3690.894775	92.429916
762.952515	1454.057739	3781.915527	3713.649902	97.067451
763.268127	1447.231201	3809.221924	3670.415039	94.123306
763.583618	1517.772339	3818.323975	3740.956299	96.636993
763.899048	1474.537476	3888.864990	3816.048340	96.983971
764.214478	1469.986450	4264.326172	4127.794922	95.114006
764.529785	1419.924927	4637.511230	4480.500488	95.120232
764.845093	1495.017212	5035.727539	4723.980957	91.195366
765.160400	1481.364014	5197.289551	4817.277344	89.773415
765.475586	1422.200562	5094.891113	4871.890137	93.928131
765.790771	1531.425537	4921.951660	4969.737305	101.409386
766.105835	1469.986450	4926.502441	4824.104004	97.037521
766.420837	1410.822876	4815.001953	4585.174316	93.248665
766.735840	1513.221313	4500.979980	4487.327148	99.543037
767.050842	1465.435425	4309.836426	4277.979004	98.879997
767.365662	1449.506714	4198.335938	3966.232666	91.556297
767.680542	1485.915039	4157.376465	3995.814453	93.952301
767.995300	1451.782227	4100.488281	3979.885986	95.446747
768.309998	1463.159912	3875.211914	3911.620361	101.509438
768.624817	1492.741699	3950.304199	3731.854004	91.111107
768.939392	1515.496826	3872.936523	3713.649902	93.243240
769.254028	1433.578125	3879.762939	3663.588379	91.162788
769.568481	1508.670288	3706.823486	3599.874023	95.134567
769.882935	1476.812988	3709.098877	3677.241699	98.572891
770.197388	1442.680176	3645.384277	3438.312012	90.599182
770.511841	1529.150024	3531.608398	3488.373291	97.840897
770.826172	1506.394775	3552.087891	3433.760986	94.215805
771.140442	1429.027100	3597.598389	3406.454590	91.185730
771.454651	1426.751587	3406.454590	3515.679688	105.517250
771.768860	1424.476074	3542.985840	3417.832275	94.092377
772.082886	1565.558350	3602.149414	3401.903564	90.167595
772.397034	1433.578125	3392.801514	3354.117676	98.025551
772.711060	1510.945801	3483.822266	3442.863037	97.923882
773.025024	1504.119263	3508.853027	3315.433838	90.351875
773.338928	1447.231201	3431.485352	3317.709229	94.266052
773.652771	1472.261963	3406.454590	3340.464600	96.588242
773.966614	1501.843750	3356.393066	3265.372314	95.092026
774.280457	1556.456177	3306.331787	3258.545898	97.269180
774.594116	1431.302612	3288.127441	3199.382324	95.220596
774.907776	1483.639526	3347.291016	3238.066162	94.139198
775.221375	1495.017212	3292.678711	3199.382324	94.810127
775.534912	1442.680176	3235.790527	3156.147461	95.558388
775.848450	1529.150024	3315.433838	3215.310791	94.394897
776.161926	1490.466064	3240.341553	3126.565674	93.498062
776.475342	1472.261963	3228.964111	3135.667725	94.689117
776.788696	1401.720825	3185.729004	3244.892578	103.316330
777.101990	1545.078613	3224.413086	3071.953125	90.921410
777.415283	1474.537476	3197.106689	3099.259277	94.319679
777.728516	1485.915039	3288.127441	3087.881836	88.888901
778.041626	1526.874512	3162.973877	3103.810303	96.383865
778.354736	1397.169800	3203.933350	3188.004639	99.118385
778.667725	1469.986450	3183.453613	3092.432861	94.687920
778.980774	1410.822876	3178.902588	3176.626953	99.871292
779.293640	1351.659302	3172.075928	3056.024414	93.625000
779.606567	1531.425537	3074.228516	3019.616211	96.460190
779.919434	1510.945801	3165.249512	3142.494141	98.624474
780.232239	1442.680176	3147.045166	2942.248291	87.983978
780.544983	1456.333252	3117.463379	3049.197754	95.890411
780.857666	1472.261963	3192.555664	2983.207764	87.830688
781.170227	1495.017212	3153.871826	3010.513916	91.358017
781.482849	1440.404663	3074.228516	3106.085938	101.949867
781.795410	1533.701050	3074.228516	3126.565674	103.397354
782.107910	1520.047852	3051.473389	3065.126465	100.891525
782.420288	1506.394775	3058.300049	3010.513916	96.920807
782.732666	1458.608887	3021.891602	2985.483398	97.671043
783.044983	1444.955688	2933.146240	2949.074951	101.070343
783.357300	1479.088501	3008.238525	2921.768799	94.345245
783.669495	1440.404663	2985.483398	2871.707275	92.636223
783.981689	1451.782227	2951.350586	2837.574463	92.412743
784.293762	1458.608887	3062.851074	2853.503174	86.950356
784.605835	1469.986450	3017.340576	2880.809326	91.176468
784.917908	1454.057739	2914.942139	2871.707275	97.040504
785.229858	1492.741699	2962.728027	2833.023438	91.176476
785.541748	1417.649414	2953.625977	2876.258301	94.962967
785.853577	1490.466064	2835.298828	2894.462402	104.399323
786.165405	1426.751587	2912.666504	2839.849854	95.099541
786.477173	1497.292725	2842.125488	2839.849854	99.830788
786.788879	1465.435425	2889.911377	2821.645752	95.207664
787.100525	1394.894287	2928.595215	2862.605225	95.697334
787.412109	1481.364014	2926.319824	2801.166016	91.338570
787.723694	1419.924927	2846.676514	2812.543701	97.607658
788.035156	1408.547363	2905.840088	2864.880615	97.264435
788.346558	1515.496826	2919.493164	2837.574463	94.165321
788.658081	1463.159912	2892.187012	2871.707275	98.566879
788.969360	1431.302612	3019.616211	2912.666504	93.266464
789.280640	1456.333252	3096.983887	2910.391113	88.626907
789.591919	1495.017212	3188.004639	2944.523926	85.618279
789.903076	1501.843750	3026.442627	3060.575439	102.238808
790.214172	1456.333252	3046.922363	3024.167236	98.569389
790.525269	1490.466064	3058.300049	3015.064941	97.242371
790.836365	1367.588013	3060.575439	3001.411865	96.505371
791.147339	1474.537476	3056.024414	2976.381104	94.964020
791.458191	1447.231201	2980.932129	2946.799316	97.774483
791.769104	1495.017212	2958.177002	2903.564453	96.267494
792.079895	1538.252075	2883.084961	2830.747803	96.108276
792.390686	1508.670288	2833.023438	2739.727051	92.955322
792.701416	1440.404663	2807.992676	2676.012451	90.349419
793.012085	1485.915039	2812.543701	2703.318604	91.766716
793.322693	1467.710938	2867.156250	2739.727051	90.894310
793.633240	1501.843750	2830.747803	2698.767578	90.068489
793.943787	1451.782227	2842.125488	2737.451416	92.471352
794.254272	1472.261963	2833.023438	2671.461426	88.127090
794.564636	1444.955688	2737.451416	2721.522949	98.767616
794.875000	1479.088501	2751.104736	2664.634766	93.202133
795.185303	1540.527588	2776.135498	2735.176025	96.685074
795.495544	1524.598877	2751.104736	2632.777588	90.352501
795.805786	1463.159912	2780.686523	2753.380127	97.927452
796.115906	1497.292725	2924.044189	2716.971924	85.486450
796.426025	1476.812988	2833.023438	2696.492188	89.932884
796.736023	1381.241089	2739.727051	2703.318604	97.319923
797.045959	1510.945801	2817.094727	2755.655762	95.296173
797.355896	1413.098389	2753.380127	2698.767578	95.925293
797.665833	1365.312500	2926.319824	2673.737061	83.819244
797.975708	1508.670288	2782.961914	2751.104736	97.500008
798.285461	1547.354126	2864.880615	2801.166016	95.164078
798.595154	1463.159912	2798.890625	2817.094727	101.362854
798.904846	1522.323364	2710.145264	2778.410889	105.747124
799.214478	1526.874512	2764.757813	2669.185791	92.279396
799.524109	1469.986450	2721.522949	2676.012451	96.363632
799.833557	1447.231201	2817.094727	2689.665527	90.697670
800.143005	1538.252075	2710.145264	2614.573486	91.844666
800.452393	1474.537476	2705.594238	2744.278076	103.142326
800.761780	1485.915039	2650.981689	2660.083740	100.781250
801.071106	1481.364014	2696.492188	2744.278076	103.932579
801.380371	1481.364014	2676.012451	2589.542725	92.761909
801.689575	1467.710938	2764.757813	2637.328613	90.175438
801.998718	1474.537476	2712.420898	2660.083740	95.772041
802.307800	1529.150024	2696.492188	2719.247314	101.949310
802.616882	1433.578125	2637.328613	2623.675537	98.865791
802.925903	1397.169800	2753.380127	2662.359375	93.288597
803.234863	1472.261963	2676.012451	2641.879639	97.164459
803.543701	1476.812988	2682.839111	2607.746826	93.773575
803.852539	1469.986450	2657.808350	2605.471436	95.593872
804.161316	1449.506714	2630.501953	2484.868652	87.668594
804.470032	1433.578125	2546.307861	2550.858887	100.408997
804.778809	1363.036987	2600.920166	2528.103516	94.117645
805.087341	1547.354126	2703.318604	2493.970703	81.889763
805.395935	1429.027100	2635.052979	2539.481201	92.075478
805.704468	1529.150024	2646.430664	2507.624023	87.576385
806.012939	1467.710938	2589.542725	2512.175049	93.103455
806.321350	1501.843750	2575.889648	2603.195801	102.542366
806.629761	1504.119263	2578.165039	2537.205811	96.186455
806.938049	1545.078613	2578.165039	2594.093750	101.541855
807.246277	1495.017212	2701.043213	2605.471436	92.075478
807.554504	1463.159912	2610.022461	2525.828125	92.658722
807.862671	1440.404663	2612.297852	2607.746826	99.611649
808.170715	1444.955688	2635.052979	2650.981689	101.338440
808.478821	1426.751587	2682.839111	2607.746826	94.021729
808.786804	1476.812988	2691.941162	2539.481201	87.453178
809.094727	1413.098389	2630.501953	2623.675537	99.439262
809.402649	1492.741699	2534.930176	2553.134277	101.746719
809.710510	1406.271851	2550.858887	2521.277100	97.415504
810.018311	1444.955688	2591.818115	2523.552490	94.047615
810.326050	1474.537476	2532.654541	2539.481201	100.645172
810.633667	1469.986450	2484.868652	2459.837891	97.533630
810.941345	1429.027100	2489.419678	2457.562500	96.995720
811.248901	1499.568237	2571.338623	2409.776611	84.925690
811.556396	1458.608887	2500.797363	2412.052002	91.484711
811.863892	1385.792114	2532.654541	2416.603027	89.880959
812.171326	1517.772339	2557.685303	2343.786377	79.431076
812.478699	1467.710938	2412.052002	2446.184814	103.614456
812.786011	1501.843750	2412.052002	2423.429688	101.250008
813.093262	1481.364014	2425.705078	2377.919189	94.939766
813.400391	1465.435425	2489.419678	2346.062012	86.000015
813.707642	1463.159912	2434.807373	2361.990479	92.505829
814.014709	1483.639526	2478.042236	2405.225586	92.677345
814.321716	1495.017212	2434.807373	2380.194824	94.188858
814.628723	1422.200562	2434.807373	2359.715088	92.584259
814.935669	1401.720825	2530.379150	2416.603027	89.919350
815.242554	1460.884399	2423.429688	2427.980713	100.472809
815.549438	1444.955688	2512.175049	2427.980713	92.110870
815.856201	1504.119263	2439.358398	2391.572266	94.890488
816.162964	1444.955688	2591.818115	2412.052002	84.325401
816.469604	1413.098389	2468.940186	2343.786377	88.146538
816.776184	1378.965576	2375.643799	2391.572266	101.598152
817.082825	1431.302612	2441.633789	2402.949951	96.171173
817.389343	1492.741699	2466.664551	2448.460449	98.130844
817.695801	1479.088501	2459.837891	2432.531738	97.215790
818.002197	1490.466064	2482.593262	2450.735840	96.788979
818.308533	1467.710938	2425.705078	2327.857666	89.786217
818.614868	1458.608887	2446.184814	2389.296875	94.239639
818.921143	1442.680176	2519.001465	2468.940186	95.348854
819.227356	1551.905151	2462.113525	2605.471436	115.750008
819.533447	1469.986450	2512.175049	2446.184814	93.668114
819.839539	1463.159912	2500.797363	2450.735840	95.175430
820.145569	1390.343262	2553.134277	2589.542725	103.131126
820.451538	1483.639526	2637.328613	2541.756836	91.715988
820.757568	1476.812988	2689.665527	2610.022461	93.433411
821.063416	1508.670288	2814.819336	2839.849854	101.916359
821.369263	1444.955688	2862.605225	2858.054199	99.678970
821.675049	1385.792114	3074.228516	2946.799316	92.452827
821.980713	1492.741699	3065.126465	3090.157227	101.591896
822.286438	1449.506714	3192.555664	3147.045166	97.389030
822.592102	1465.435425	3465.618164	3283.576416	90.898743
822.897583	1483.639526	3820.599365	3872.936523	102.239532
823.203125	1483.639526	5222.320313	5131.299316	97.565422
823.508545	1497.292725	7484.187988	7290.768555	96.769279
823.813965	1467.710938	9577.666992	9052.021484	93.518517
824.119263	1497.292725	10781.417969	10119.241211	92.867645
824.424622	1485.915039	10071.455078	9764.259766	96.421944
824.729858	1469.986450	8722.071289	8303.375000	94.226540
825.035095	1422.200562	7593.413086	7217.952148	93.915932
825.340149	1492.741699	6576.254883	6284.988281	94.270370
825.645264	1479.088501	5795.751465	5474.902832	92.567207
825.950256	1465.435425	5404.361816	5151.779297	93.587532
826.255310	1497.292725	4840.032715	4721.705566	96.460175
826.560242	1474.537476	4642.062500	4409.959473	92.672417
826.865112	1442.680176	4298.458984	4221.091309	97.290840
827.169922	1520.047852	4073.182129	3932.099854	94.474152
827.474670	1442.680176	3893.416016	3825.150391	97.214485
827.779419	1492.741699	3859.283203	3868.385254	100.384613
828.084045	1467.710938	4350.795898	4198.335938	94.711914
828.388672	1483.639526	4764.940430	4689.848145	97.711510
828.693176	1431.302612	5233.697754	5001.594727	93.895874
828.997681	1483.639526	5333.820801	5106.268555	94.089828
829.302124	1465.435425	5028.900879	4846.859375	94.891449
829.606567	1469.986450	4526.010742	4348.520020	94.192101
829.910828	1440.404663	4132.345703	3952.579590	93.322060
830.215149	1465.435425	3720.476563	3593.047363	94.349144
830.519348	1499.568237	3561.189941	3363.219727	90.397362
830.823547	1520.047852	3283.576416	3176.626953	93.935486
831.127686	1538.252075	3137.943115	3049.197754	94.452347
831.431763	1422.200562	2996.860840	2912.666504	94.653175
831.735779	1472.261963	2787.512939	2869.431641	106.228371
832.039734	1476.812988	2782.961914	2669.185791	91.289192
832.343628	1497.292725	2691.941162	2610.022461	93.142860
832.647461	1495.017212	2630.501953	2439.358398	83.166351
832.951233	1465.435425	2671.461426	2443.909424	81.132080
833.255127	1458.608887	2544.032227	2503.072998	96.226425
833.558777	1463.159912	2591.818115	2578.165039	98.790329
833.862366	1474.537476	2530.379150	2503.072998	97.413803
834.165955	1506.394775	2703.318604	2671.461426	97.338409
834.469482	1490.466064	2842.125488	2828.472412	98.989906
834.773010	1492.741699	3081.055176	3112.912354	102.005722
835.076416	1472.261963	3572.567627	3436.036377	93.499458
835.379822	1449.506714	3759.160400	3809.221924	102.167488
835.683105	1444.955688	4041.324951	3781.915527	90.008774
835.986389	1520.047852	3781.915527	3593.047363	91.649902
836.289612	1476.812988	3502.026611	3356.393066	92.808975
836.592773	1469.986450	3185.729004	3206.208740	101.193634
836.895874	1497.292725	2990.034424	2939.972900	96.646339
837.198914	1508.670288	2894.462402	2887.635986	99.507401
837.501892	1476.812988	2867.156250	2726.073975	89.852699
837.804871	1444.955688	2726.073975	2619.124512	91.651863
838.107666	1524.598877	2607.746826	2539.481201	93.697479
838.410583	1415.373901	2603.195801	2519.001465	92.911873
838.713379	1490.466064	2519.001465	2393.847900	87.831863
839.016052	1483.639526	2368.817139	2371.092773	100.257080
839.318787	1447.231201	2380.194824	2448.460449	107.317070
839.621338	1444.955688	2214.081787	2218.632813	100.591713
839.923889	1358.485962	2289.173828	2202.704102	90.709053
840.226440	1440.404663	2259.592041	2189.051025	91.388901
840.528931	1495.017212	2161.744873	2159.469238	99.658684
840.831299	1440.404663	2259.592041	2179.948975	90.277794
841.133606	1426.751587	2323.306641	2359.715088	104.060928
841.435913	1442.680176	2505.348389	2400.674561	90.149902
841.738220	1531.425537	2471.215576	2439.358398	96.610184
842.040405	1474.537476	2500.797363	2418.878662	92.017746
842.342529	1390.343262	2496.246338	2361.990479	87.860069
842.644592	1419.924927	2389.296875	2277.796387	88.497658
842.946594	1492.741699	2373.368164	2204.979736	80.878563
843.248596	1431.302612	2241.387939	2230.010498	98.595528
843.550598	1447.231201	2211.806152	2179.948975	95.833351
843.852478	1501.843750	2179.948975	2098.030273	87.919472
844.154236	1501.843750	2182.224365	2127.612061	91.973274
844.455994	1490.466064	2091.203613	2107.132324	102.651527
844.757690	1456.333252	2136.714111	1972.876587	75.919731
845.059326	1451.782227	2007.009399	1925.090576	85.245888
845.360962	1431.302612	2002.458252	1938.743774	88.844635
845.662476	1429.027100	2000.182739	2000.182739	100.000000
845.963989	1485.915039	1993.356201	2034.315552	108.071747
846.265381	1538.252075	1956.947876	1947.845825	97.826096
846.566772	1458.608887	1970.601074	1902.335449	86.666664
846.868042	1490.466064	2000.182739	1997.907227	99.553574
847.169373	1485.915039	1988.805176	1956.947876	93.665154
847.470581	1499.568237	1954.672363	1915.988525	91.500000
847.771729	1510.945801	1904.610962	1877.304688	93.063576
848.072815	1499.568237	1954.672363	1936.468262	96.000015
848.373901	1495.017212	1938.743774	1845.447388	78.974350
848.674866	1481.364014	1977.427612	1975.152100	99.541283
848.975891	1476.812988	2022.937988	1836.345337	65.833344
849.276794	1542.803101	1997.907227	1859.100464	69.500000
849.577637	1492.741699	2011.560425	1895.508789	77.631561
849.878357	1517.772339	1906.886475	1872.753662	91.228073
850.179077	1581.486938	1927.366089	1936.468262	102.631607
850.479736	1533.701050	2007.009399	1911.437500	79.807686
850.780396	1520.047852	1925.090576	1906.886475	95.505630
851.080994	1444.955688	2057.070801	1986.529663	88.475838
851.381470	1431.302612	1988.805176	1829.518677	71.428558
851.681946	1454.057739	1952.396851	1831.794189	75.799080
851.982361	1508.670288	1938.743774	1888.682251	88.359772
852.282715	1538.252075	1890.957764	1893.233276	100.645157
852.583008	1490.466064	1904.610962	1902.335449	99.450554
852.883240	1399.445313	1915.988525	1886.406738	94.273125
853.183411	1542.803101	1856.824951	1824.967651	89.855072
853.483521	1515.496826	1875.029175	1863.651489	96.835419
853.783630	1495.017212	1945.570313	1875.029175	84.343437
854.083679	1469.986450	1909.161987	1815.865601	78.756470
854.383667	1549.629639	1852.273926	1788.559326	78.947365
854.683533	1572.384888	1904.610962	1820.416626	74.657516
854.983337	1497.292725	1788.559326	1827.243164	113.281250
855.283203	1460.884399	1879.580200	1913.713013	108.152176
855.582886	1451.782227	1925.090576	1843.171875	82.692322
855.882629	1529.150024	1870.478149	1836.345337	90.000000
856.182312	1479.088501	1868.202637	1829.518677	90.058456
856.481873	1479.088501	1852.273926	1818.141113	90.853661
856.781372	1472.261963	1797.661377	1777.181763	93.706314
857.080872	1415.373901	1811.314575	1790.834839	94.827576
857.380310	1513.221313	1847.722900	1834.069824	95.918381
857.679688	1492.741699	1879.580200	1904.610962	106.470596
857.979004	1463.159912	1793.110352	1863.651489	121.379311
858.278259	1424.476074	1815.865601	1815.865601	100.000000
858.577454	1495.017212	1795.385864	1870.478149	125.000038
858.876648	1394.894287	1861.375977	1743.048950	74.634155
859.175720	1390.343262	1784.008301	1852.273926	117.341042
859.474792	1488.190552	1820.416626	1813.590088	97.945213
859.773743	1481.364014	1818.141113	1815.865601	99.324326
860.072693	1454.057739	1870.478149	1736.222412	67.759567
860.371521	1451.782227	1859.100464	1847.722900	97.206711
860.670349	1522.323364	1865.927002	1838.620850	92.053009
860.969116	1467.710938	1758.977539	1718.018188	85.937508
861.267883	1508.670288	1797.661377	1797.661377	100.000000
861.566589	1467.710938	1811.314575	1799.937012	96.688751
861.865112	1474.537476	1813.590088	1875.029175	118.120811
862.163635	1551.905151	1838.620850	1784.008301	80.952370
862.462158	1501.843750	1847.722900	1809.039063	88.815796
862.760620	1426.751587	1865.927002	1863.651489	99.481865
863.059021	1479.088501	1854.549438	1777.181763	79.393951
863.357361	1438.129150	1886.406738	1806.763550	82.233513
863.655640	1495.017212	1786.283813	1834.069824	116.406281
863.953857	1449.506714	1818.141113	1861.375977	111.728386
864.251953	1515.496826	1861.375977	1799.937012	82.236870
864.550110	1529.150024	1788.559326	1829.518677	115.789467
864.848206	1460.884399	1763.528564	1872.753662	136.090271
865.146179	1497.292725	1824.967651	1818.141113	97.916672
865.444092	1492.741699	1856.824951	1765.804199	75.000015
865.741943	1497.292725	1809.039063	1756.702026	83.211662
866.039795	1476.812988	1806.763550	1852.273926	113.793091
866.337646	1554.180664	1822.692139	1870.478149	117.796638
866.635376	1490.466064	1836.345337	1779.457275	83.552628
866.933044	1499.568237	1813.590088	1822.692139	102.898544
867.230652	1488.190552	1824.967651	1824.967651	100.000000
867.528198	1438.129150	1881.855713	1815.865601	85.128204
867.825745	1442.680176	1877.304688	1777.181763	76.963348
868.123230	1492.741699	1779.457275	1777.181763	99.206352
868.420593	1410.822876	1877.304688	1747.599976	72.195122
868.717896	1442.680176	1859.100464	1813.590088	89.071045
869.015198	1449.506714	1838.620850	1822.692139	95.906418
869.312439	1442.680176	1804.488037	1840.896362	110.062889
869.609619	1433.578125	1802.212524	1827.243164	106.790100
869.906738	1499.568237	1834.069824	1859.100464	107.482964
870.203796	1408.547363	1890.957764	1763.528564	73.584900
870.500854	1426.751587	1831.794189	1777.181763	86.516869
870.797791	1394.894287	1768.079712	1774.906250	101.829262
871.094666	1520.047852	1834.069824	1756.702026	75.362297
871.391602	1431.302612	1824.967651	1827.243164	100.578033
871.688293	1463.159912	1799.937012	1765.804199	89.864868
871.985107	1422.200562	1777.181763	1829.518677	114.743576
872.281738	1469.986450	1809.039063	1902.335449	127.516785
872.578369	1463.159912	1884.131226	1756.702026	69.729721
872.874939	1522.323364	1863.651489	1824.967651	88.666672
873.171509	1515.496826	1820.416626	1811.314575	97.014938
873.467957	1567.833862	1900.059814	1809.039063	72.602760
873.764343	1447.231201	1790.834839	1877.304688	125.165581
874.060669	1506.394775	1947.845825	1784.008301	62.886593
874.356995	1454.057739	1975.152100	1881.855713	82.096069
874.653198	1497.292725	1840.896362	1836.345337	98.675499
874.949463	1531.425537	1897.784302	1797.661377	72.670799
875.245544	1451.782227	1786.283813	1827.243164	112.244888
875.541626	1444.955688	1836.345337	1831.794189	98.837181
875.837646	1474.537476	1831.794189	1795.385864	89.808914
876.133606	1476.812988	1875.029175	1852.273926	94.285706
876.429565	1472.261963	1854.549438	1847.722900	98.214294
876.725403	1556.456177	1811.314575	1834.069824	108.928589
877.021179	1463.159912	1845.447388	1784.008301	83.928566
877.316956	1438.129150	1861.375977	1838.620850	94.623672
877.612610	1497.292725	1847.722900	1897.784302	114.285698
877.908203	1488.190552	1875.029175	1902.335449	107.058830
878.203857	1460.884399	1849.998413	1747.599976	73.684204
878.499390	1467.710938	1790.834839	1790.834839	100.000000
878.794800	1474.537476	1804.488037	1822.692139	105.517220
879.090271	1460.884399	1886.406738	1886.406738	100.000000
879.385559	1538.252075	1861.375977	1868.202637	102.112709
879.680847	1476.812988	1827.243164	1888.682251	117.532478
879.976196	1413.098389	1843.171875	1884.131226	109.523804
880.271301	1465.435425	1931.917114	1913.713013	96.097572
880.566467	1456.333252	1975.152100	1963.774414	97.806999
880.861572	1460.884399	2027.489014	1968.325439	89.558228
881.156555	1463.159912	2091.203613	1988.805176	83.695648
881.451477	1492.741699	2120.785400	2296.000488	127.898552
881.746460	1508.670288	2343.786377	2373.368164	103.542236
882.041321	1533.701050	2721.522949	2732.900391	100.957840
882.336121	1476.812988	3472.444824	3422.383301	97.491447
882.630798	1499.568237	4343.969238	4102.764160	91.520004
882.925537	1440.404663	4874.165527	4717.154785	95.427444
883.220215	1451.782227	5001.594727	4783.144531	93.846146
883.514771	1467.710938	4880.992188	4701.226074	94.733337
883.809326	1481.364014	4623.858398	4280.254395	89.065880
884.103760	1465.435425	4232.468750	3984.437012	91.036186
884.398132	1447.231201	3893.416016	3797.844238	96.093025
884.692505	1442.680176	3613.527100	3565.741211	97.798744
884.986816	1456.333252	3511.128662	3376.872803	93.466217
885.281067	1479.088501	3322.260254	3124.290039	89.259262
885.575256	1431.302612	3137.943115	2980.932129	90.799995
885.869385	1394.894287	3044.646729	2796.614990	84.965515
886.163452	1472.261963	2735.176025	2630.501953	91.711700
886.457458	1483.639526	2637.328613	2534.930176	91.124260
886.751465	1422.200562	2400.674561	2348.337402	94.651146
887.045410	1474.537476	2373.368164	2225.459229	83.544296
887.339233	1476.812988	2264.143311	2204.979736	92.485542
887.632996	1451.782227	2177.673340	2095.754639	88.714737
887.926758	1460.884399	2209.530762	2013.835938	73.860176
888.220398	1497.292725	2059.346436	2054.795166	99.190247
888.514099	1456.333252	2098.030273	2032.040039	89.716293
888.807678	1460.884399	1954.672363	1997.907227	108.755753
889.101196	1533.701050	2011.560425	1895.508789	75.714272
889.394653	1469.986450	1947.845825	1952.396851	100.952377
889.688049	1449.506714	1938.743774	1845.447388	80.930229
889.981384	1449.506714	1975.152100	1834.069824	73.160179
890.274719	1458.608887	1952.396851	1809.039063	70.967743
890.567932	1417.649414	1975.152100	1758.977539	61.224480
>>>>>End Processed Spectral Data<<<<<
